time,C3,C4,Cz,FC1,FC2,FC5,FC6,CP1,CP2,CP5,CP6
-0.2,19.164331101037885,19.621093931085564,30.76859718857757,-84.98223099144103,-5.2178780052607046,21.654449121910385,19.660612978814086,26.085241594919783,53.74399340235558,-99.56109169371108,14.66575295183302
-0.192,9.920308938948398,12.744803735036134,19.066347515511175,-81.68124006231467,0.7724988149810792,4.007022677430955,-5.006307333954497,10.339160074254552,57.39425069574094,-101.41271387216835,12.326514202586086
-0.184,8.62188838714748,0.955274585561557,13.276076802919187,-71.53339830460196,5.074041312319946,-3.670205495363449,-16.35221448193738,6.820133339528084,52.87433381004957,-98.50142316086642,9.034928291053387
-0.176,11.509850804966966,-15.591395990645873,14.223433281702498,-65.96400703369886,3.9987845494228824,2.327032749056925,-6.9230133538556355,18.1285251314231,52.506637726521376,-84.58410499623554,11.433858702330864
-0.168,16.259533973469583,-15.008226938279329,17.39614096925858,-80.70683070318609,-3.7304541574055436,8.477509383314832,1.5740939202285844,27.336899611357268,76.9873859086642,-64.9940750874058,15.166829430981156
-0.16,17.343447667130647,5.383371922215924,17.75840993392966,-93.73652548057173,-13.189512731920075,12.020372612042308,8.470733616859492,26.962637093749787,120.05993609478607,-54.349200927261215,19.12492575254052
-0.152,14.708825947067368,-0.6488055136162728,17.553128392840364,-73.83217467929896,-14.742942394854083,11.403783830471859,10.588348256999637,23.557362000311738,146.7856436076321,-58.06922608613484,25.6271945755497
-0.144,15.623068402254479,-42.030458120753906,23.346152503288728,-33.498196665037064,-8.324415056162465,7.335317457116774,2.6522358712830436,24.320883260733954,146.6626903281233,-62.28866406278147,26.59244728370387
-0.136,19.414433278831705,-80.45349895626833,28.45635559169657,-6.899406045462779,-3.3821830089282625,10.50054273119954,4.954498252996706,30.231434211667736,142.35682798546765,-44.281796434834334,17.871806521086466
-0.128,25.415512555272183,-114.31750588306302,22.351505800639718,-0.3848723290800389,-2.141960452446235,18.54937421291502,20.068796983912815,33.64689561197103,135.7050922259757,-9.212652902339292,9.857422915886398
-0.12,32.71543192986972,-142.7742202379576,12.388732303442234,3.8001171597105805,-0.7026358314521537,14.698551598349825,17.16860049297262,26.27126018270344,107.6290875099458,12.792365022605566,9.405593301008368
-0.112,29.069785170182698,-126.19177575337186,7.598457841275502,5.5426322951513525,-1.8545019129987128,2.3003269558060353,-1.0533604904687053,13.44591665104169,64.82722386043298,24.363767553111863,12.268609130522375
-0.104,17.884592470714512,-77.27969623989601,3.4776621875032028,-6.523448052904015,-8.09265131151938,-1.4486915150522381,-4.757007793633616,8.690899121061193,27.882219341882102,51.369335059996175,12.759475693624442
-0.096,19.704051003086846,-54.882618347180035,0.4821286146386432,-9.634752963544267,-13.10294961624681,0.31896150487321384,-1.9596658572455,13.546286811431486,-1.3535324475719255,80.72186240877018,9.896380284225552
-0.088,24.030269260074846,-51.26696699380825,2.3190130566665093,17.16044857508811,-11.818858854149134,-3.51102258979817,-10.095850926845433,14.934859976768239,-24.39062600627731,84.58652570708425,6.271629614500654
-0.08,4.149396522452253,-28.907203695625967,-1.1010729472748433,41.78300381912032,-3.806708719365316,-9.696694236288097,-16.39294442143153,3.5746697691807703,-37.535053627061046,71.60219521358475,-1.3332698477918936
-0.072,-25.107445585004285,-9.693662352745822,-13.129012994087809,43.44750122349857,10.147068045416034,-13.335704487487332,-15.517194153054596,-12.917542122967234,-48.97064011312606,60.01907456632135,-18.967927946108325
-0.064,-28.607927885149167,-15.949350018918471,-18.06279707691798,44.01402699268238,20.47925719705422,-12.14720185132881,-13.041039360498024,-21.666125423302713,-67.6167959715084,51.337677574215064,-36.61845637730463
-0.056,-10.239015868481491,-12.992675019844397,-14.719367773978197,41.33702300506516,16.441236724247005,-4.240421820407169,-2.358877624643257,-24.78998060259284,-87.49142876194762,48.86760164146822,-38.98267524329869
-0.048,-6.048221339093924,26.20152246767439,-20.939884022758317,28.9600528830597,6.708214644754497,-0.6299542976196966,8.111500590595632,-33.1318484183283,-106.33097870085109,56.619854161092995,-31.686981304194454
-0.04,-27.660259171158,76.78129455748415,-34.75544581261204,34.588648792727255,5.517406088187841,-8.411426150901951,4.61558382754895,-44.15078664935479,-131.54729037951626,61.38327305269377,-26.204209733793213
-0.032,-44.520438054140676,106.40694164277832,-37.00752552761823,51.70048928995821,7.690284377761876,-11.751151973485253,3.547745882805496,-46.68185828185639,-156.5829915091496,47.02073217576809,-19.200959494106094
-0.024,-38.403795551160506,116.19382550149862,-28.065997741957748,50.787685980954805,4.16948872685667,-6.814755285470201,9.084870752733774,-40.928559282052944,-162.58517590024616,23.212075566697035,-8.671129615826748
-0.016,-33.62075612270104,127.72500795710202,-22.353961855909517,57.66214626130757,0.9459478400799765,-10.40605863848626,-0.07651786835471289,-34.381570271958346,-146.17411992944378,9.841989123071825,-3.1060433838101216
-0.008,-39.142890968382204,146.12687818754875,-20.865393148259496,88.5715502009783,3.057200204356265,-16.48686198534013,-11.523959343395877,-27.90131133067041,-120.42330750099171,1.0516213897224773,-7.864631312365658
0.0,-32.183976867236325,149.8480455739897,-19.461683082516032,100.02175683183911,5.106223527270586,-11.043094507458907,-5.43966841843211,-21.34348205901991,-94.41338164988629,-7.535000992465175,-19.667084392832965
0.008,-22.877613420949825,124.94647049360381,-25.236414976365882,81.59735686369031,6.174389031108418,-9.871572588544877,-4.694709504997559,-20.499904645385012,-73.47784636917116,9.551464275843419,-29.84988077640796
0.016,-35.2371942373835,89.38350771466713,-39.35963572414863,67.99660836438325,10.490269858977191,-19.837304851342132,-16.168640353365713,-24.37163321300647,-66.97859504366585,49.93523105939774,-33.28239308374489
0.024,-43.91684613756064,66.55882318059854,-44.52613990252513,66.63174513724832,14.806066713663707,-20.56511147877956,-15.473801055586591,-21.17486371396733,-73.46315064450093,73.09226943994278,-37.28338100520365
0.032,-34.67480509181308,62.600916207235706,-34.28727478573835,71.81559608552453,15.491890855728563,-15.15598931823945,-13.797704469679706,-11.624849715980364,-76.96103549822048,77.16091987006975,-47.86210506764354
0.04,-46.23737772656964,78.87515851864741,-30.25870427503666,81.49988321439812,18.91830140904717,-22.545848786456798,-28.45492557658588,-13.288709464486175,-74.4574677984461,80.40480879994678,-57.09163330946085
0.048,-76.52582852703384,106.69485611247678,-43.13269464975764,76.10524158407783,27.690774360795704,-30.589562675875193,-33.549648048771544,-27.126835188513578,-73.55826029298846,65.45327640350993,-61.65776580935377
0.056,-76.93423476682062,114.20953186522839,-49.951585179389006,52.8743826392902,32.61938636060046,-23.34412179518441,-19.152079656852187,-32.07820569793364,-66.83596272996982,36.03752143466852,-67.66020512360521
0.064,-56.03495086019138,83.84030477913656,-38.02006958808909,35.365826631400466,30.48373303793854,-11.794732046463805,-7.222433711391033,-22.855707491593627,-59.58058326302574,24.888336845862714,-66.72345826517825
0.072,-52.655392596472694,44.75898751358536,-28.72935613740876,22.690088284841394,29.01352330155006,-5.246678862177213,2.5799092839572855,-16.5274149969146,-82.99391903003571,18.28222718652855,-47.40502367895409
0.08,-59.866551209482786,34.45831607404064,-36.609174024710036,4.974820222360548,31.566725569146676,-5.206682120408181,9.681276774797716,-22.326178233899373,-128.88373310655615,-3.2758925067867732,-27.822699236973072
0.088,-67.3708881165847,53.87124077669707,-48.82606520361089,-1.2919987425873627,35.64124661834412,-16.413878337317595,-4.458748187817223,-33.09500047078231,-150.8217264404743,-13.44092929418654,-28.936029123074377
0.096,-79.12468559983007,76.2400160686558,-51.854364219879315,7.636123166618864,37.76747554829766,-26.849610838732488,-20.85791190517962,-36.985981318475496,-146.8795063752339,-11.298470683059934,-33.642661878232275
0.104,-79.08845978107566,82.85315740193711,-45.527565279369874,11.998129304814336,33.67388414482704,-21.13487472125831,-11.620110967750154,-30.96811292988962,-143.17295627200778,-21.0159143128225,-22.941755254253998
0.112,-71.63237262491373,82.97012726610417,-38.28067661124766,10.943505980226426,28.24699786953413,-14.83355744820372,-2.7540546094984597,-28.79745852089868,-138.9474401550568,-25.7221274041329,-15.332635527594785
0.12,-82.01654547433813,91.03489799807183,-40.225717194173676,13.632307564964766,31.407819253232066,-22.071375167287776,-13.638029431208388,-38.60652162055273,-142.596465691185,-18.76278420740517,-22.4465831003128
0.128,-87.92259723819227,98.04235788133073,-47.35598560682909,16.906012814786674,35.47088842094236,-26.572994239663196,-17.472053362120253,-45.11676206175138,-166.30524043793164,-28.09489679535163,-21.867123491351673
0.136,-67.82236735927856,96.30322787945143,-44.18666075367615,25.938883175478463,28.010490782182163,-21.205240724403584,-9.360006836057686,-41.161646904658134,-175.14955783219114,-38.95032769019436,-8.740112351215997
0.144,-57.86968869245049,100.61187143025599,-31.807044188298633,46.87101791187097,18.970088749603125,-18.59919113896764,-9.038951209690891,-39.076078193352615,-146.96958365180782,-26.673348967220004,-5.68127180236929
0.152,-63.79320962343417,111.61069216135456,-25.760619686252426,62.00183096710252,19.080467691560052,-19.06164336433006,-12.251255067660653,-35.05625534802989,-119.20826705169735,-24.881907564703738,-11.682604053525543
0.16,-47.968150162281184,108.51132166210081,-28.411531917491722,58.75355492886874,19.242585910225024,-18.569525970195247,-14.788812191128267,-19.082785399266577,-110.63412056921305,-44.06493581880235,-9.779847222080056
0.168,-29.115391872337355,91.94883981652848,-33.315122173218974,50.17466275433818,15.783031269420572,-21.83605540230093,-22.787032573218145,-8.791431455772033,-97.70824195099671,-36.003100958052734,-7.838536711053941
0.176,-38.617960282125935,78.79130559609348,-37.72227947545356,43.26487039125243,16.152159924778104,-24.083311470047704,-24.734442611232478,-14.176043923516014,-75.96912878050775,2.460618425660803,-18.022561892652455
0.184,-39.74898127365448,66.43441882389561,-32.98751034158723,33.59106125975392,16.25092396148241,-17.982346699042,-17.677180382041183,-11.062325093915184,-63.60214292372039,26.020030631180077,-28.773480192113325
0.192,-17.89722497918603,45.870027016586214,-17.997161940550534,26.001464245045966,11.205220178140442,-12.203308203552536,-18.00253469407249,4.734848019455865,-71.17738297602897,31.026189712186728,-26.528908479509347
0.2,-21.70938217502894,26.071363212576173,-14.530192300293782,22.22003727952497,11.592101446996237,-14.603551803641585,-21.59179598935686,3.3921122299873927,-92.14610572006738,34.60427763771764,-16.84469597886222
0.208,-48.3968465259332,21.01195080465917,-26.30209811040268,14.30360321324902,21.24924391523844,-18.533572295301127,-18.36608590683058,-14.315921795590874,-102.68288402038239,21.02874763660614,-15.047366009544351
0.216,-50.80778902596288,28.63609083913465,-30.349528933669244,5.751382855779672,29.176657041280777,-20.53464698208887,-21.862493959685292,-21.208074577462998,-87.0327351469809,-10.70127908129599,-26.751651075403355
0.224,-59.30151926481136,32.760165525596925,-47.3093295095952,13.78479131652538,37.80372041366319,-38.868692697305015,-48.368495662870295,-38.54352775508411,-44.897077872502855,-8.531428262546411,-47.305272830134484
0.232,-132.0028991662751,24.485142537967878,-125.87600670193372,61.41035177148422,63.62733882432391,-99.47827079671569,-112.48223454643409,-110.91365071234138,32.00316965931626,70.84846085149928,-85.28231701265214
0.24,-232.03852758393683,12.321151646092805,-235.99996124239726,164.17512098569776,102.37933508318885,-190.1320017546108,-213.61031148029252,-210.78741880982992,128.9481591940014,201.390243674989,-149.65158219087775
0.248,-289.2065090180385,5.576225591969071,-297.7398402515993,291.15981711065723,126.25849848126944,-254.94243471357723,-295.9296850254146,-266.38534267757234,191.9082795824541,321.2825753742031,-205.77499976908027
0.256,-300.6484631773976,6.510100287768538,-301.2402807003356,375.80545665479553,121.18003327983585,-263.2592531513617,-304.9810097306105,-266.21493115580193,209.14476048390748,398.5429693543755,-213.35611048206562
0.264,-286.51232507069966,19.288982805976456,-284.0367224113288,401.01449110507997,101.31066228930183,-240.34841477513808,-269.3834999125375,-246.36492241439063,223.13995608271108,431.7989782010395,-195.6596070034772
0.272,-250.5545455422134,40.99341776961406,-250.96431194765233,411.39983899094153,83.24109031695734,-211.78742087058615,-236.63043442378586,-216.12428453371297,234.85966321582538,420.0369969390463,-186.2550813256919
0.28,-214.75927507569202,54.66988816062678,-205.03546904213422,426.8333293779323,68.08212456825166,-179.43156569363586,-201.46091603908104,-173.98922714905686,211.76145789082585,372.9115275105568,-162.35508048832637
0.288,-194.89637385159998,52.287853420567295,-172.68551768910066,423.5467729644197,52.779817104310176,-149.9468102995829,-159.37335703976154,-139.5663419055113,169.38561887770106,319.7597787610087,-112.21871361745464
0.296,-165.97458749083256,45.22867380185989,-153.1732632485941,398.0490247727585,38.658658458125934,-127.67612352824447,-128.18537860220994,-117.49251434675404,141.37425305068052,279.5615124304004,-76.01270037734568
0.304,-119.26551102190696,44.63099089960973,-123.12271135862558,373.05135302600206,25.202426251823884,-101.98278458274903,-102.228298522576,-91.27787647340838,122.78143481903801,247.9379153224615,-65.71070254181977
0.312,-85.42126827643494,51.370486814937706,-88.61750618955723,351.00263964208114,11.440862905683122,-74.42576319709302,-71.931744396735,-64.03469559363532,104.16073052280866,215.68088342132714,-49.90563696523341
0.32,-72.14187754781253,61.573673524864475,-67.90087194891163,319.1445289338673,1.9131706849132146,-58.50604584771703,-52.7981079881688,-46.67707517615159,95.62540936466573,178.27097267246828,-27.32835725604594
0.328,-57.63340008887407,67.64476474609707,-50.79145703863576,279.1650043362077,-1.480965590855868,-46.38177043351359,-42.48707707340686,-28.92051022822788,96.02633990693535,137.7059306470479,-19.2932314378475
0.336,-33.89708228621594,60.01925110864518,-20.130328173364763,233.429809811393,-5.7319831897855,-19.522123657289633,-14.172922993454835,-2.4696263571981363,90.15080395018725,100.7383971130196,-17.61445638597865
0.344,-0.22713063455296245,36.28008937802213,18.264133088094493,177.6393172462582,-14.806679389171856,16.400881366612555,27.176514561407796,27.24347781253096,71.12142087331274,66.37301255029041,-7.171802814148733
0.352,42.226265266515945,6.539647253827463,51.70333754224688,124.93661165079392,-23.431977488589865,43.47953180948437,53.204927067639105,59.56768508925813,41.24159727644784,28.444395371618178,6.635556086579545
0.36,72.32228456123349,-15.589304989869754,77.11663806415916,86.8104399867547,-28.63794197426757,62.457288800369916,70.37504650661737,88.27648016420764,9.825960593362003,-8.644126919180058,21.459335520662286
0.368,79.50805110378462,-27.30324375973767,92.29474897818406,42.753505692348064,-33.69072974835995,81.68436603791066,98.42615843258153,99.16988429655541,-7.514488625043319,-37.99301092838236,40.755556820695126
0.376,88.69186295590698,-35.259058483310426,98.57967867924346,-15.806858204623214,-39.0190005398246,94.64947466809949,118.23347190865833,100.55346442693893,-8.792166579526665,-63.96844931512059,55.428410462590364
0.384,111.69947886863751,-42.58421958909049,106.9303741942516,-61.65417040932588,-41.67547716696783,95.71070761193324,110.75623052508335,108.6975566798212,-13.550333521567362,-89.3565719018559,57.873996451490754
0.392,124.4092378805896,-45.857956080139736,116.95521652352856,-89.37054780850545,-41.309587595916376,94.0273702112764,99.69751884415078,111.79638315072548,-32.84734156152296,-106.69678486211731,56.06032999437181
0.4,113.16038611283972,-40.972910725763064,112.16411806732533,-118.2087885800523,-38.0277002532831,91.1200094225323,98.33876587564731,97.85319459234732,-52.26466471580699,-114.56000518246152,56.71674379623143
0.408,93.65119013611584,-28.823130028293537,93.13344508285833,-141.24716300855002,-31.127731584704712,78.76595979426091,86.56998357821942,81.15064196980498,-59.91250583946178,-122.30613448905238,55.62904716032075
0.416,83.08083325027172,-17.908591671976005,79.25739659310753,-150.22112929838377,-24.46383375155134,65.59716490802953,69.14784065779435,70.46564226678736,-63.543810793713035,-132.27961030017192,50.54927010076719
0.424,80.44046174640472,-14.228441082096676,72.4452256619799,-162.4539146606105,-22.201108927175625,62.818676593377376,67.35576261069859,59.776463191185535,-68.57445448000767,-136.0794892536632,46.985027360025036
0.432,69.90566231908025,-10.736253780740949,59.90657938479768,-179.53515846168082,-19.34246524119886,58.19659624322295,65.59249359009178,49.88556900310892,-70.64581478789694,-132.42087860109316,45.88934609369882
0.44,46.31876261851001,-0.132706875515124,43.91696424615475,-187.20264418677144,-10.644966323408829,43.08087475999227,47.08127245586172,39.84871766250826,-72.36524134624894,-131.35034889759868,40.38468881063212
0.448,28.919736779670924,10.379280333587733,33.91229951115139,-188.3210359276162,-3.1602593672502657,29.848592822082345,29.625955468509986,24.6502137913944,-75.74472029273684,-135.08447968557167,32.89865927070986
0.456,28.418432899299983,9.02774681556284,27.59760581377376,-189.37037524819354,-3.1647868936785355,23.063607492476432,21.304761197465353,13.52785961558166,-70.07958575404272,-131.56991720276238,32.47471646123075
0.464,26.521483025128507,-3.980018684261284,20.604484227311406,-194.17244021756645,-2.242586992494428,16.622484998117265,12.257011459323682,11.450811148448235,-53.47533964006785,-115.49745399461,29.560970463938194
0.472,10.94360062802201,-14.156825174805912,14.057249377926055,-206.47432652052976,6.187119264112493,12.162660510168905,6.317643730164691,3.635736295640257,-41.3635374267679,-99.52663740616543,12.173989007543769
0.48,-2.710981589975432,-9.081544526769862,6.8792134975744235,-210.24892266900923,13.479066292071296,8.548035461875443,3.537481394469724,-10.303484743500729,-41.724952690125214,-96.02480926358086,-2.433227691773024
0.488,-0.9390173854038523,1.5544269295931716,-0.7641994314959771,-196.21976102472817,13.930373357394584,1.5335365665196399,-5.490792787320716,-12.37215581574692,-49.011593460668756,-101.02351474875081,-0.4805539328006726
0.496,0.842739307707552,0.04169728320447836,-2.4545490783240007,-185.4006852276718,14.998897621081369,-1.6861678419780144,-11.274218111875745,-6.171334736295039,-54.8109199630116,-101.96945926127648,0.978909694655589
