time,C3,C4,Cz,FC1,FC2,FC5,FC6,CP1,CP2,CP5,CP6
-0.2,-22.096407565387707,99.5980036776791,-17.17899279530868,4.985261613133643,6.492732562573205,-23.93111426057499,-32.45590238946895,-27.374960387772536,-79.4348305866419,-35.925616912427856,-5.847771476948907
-0.192,-22.74943473433947,103.40412623060128,-16.13972558205571,6.803451529769082,9.2005429116171,-20.382721407961856,-27.75627943853651,-29.418533965438016,-66.12134714063102,-39.063256656368594,-16.866644779625865
-0.184,-4.963556941310612,93.22326475664649,-6.505528327503697,7.973345194837534,4.2116826273119905,-8.38474598631928,-11.932049392704334,-19.94819047148874,-73.54832841143713,-48.358041441762374,-9.996041242819388
-0.176,2.977544218027338,79.64162040271403,-5.474663980607537,5.738262939865477,-1.1557363273565382,-9.200521528381284,-12.717862385213087,-15.461455162222773,-77.81523744571014,-48.218798164694185,6.214466521092531
-0.168,-3.1645934171099173,73.39002814768484,-10.342460376555689,1.2511824968792067,0.4228458238318485,-14.173568129328913,-18.578226346115088,-20.728719300023894,-67.23830884187521,-42.40310068664383,5.53070437799454
-0.16,-4.500927487559263,69.27586690300748,-6.066617370384049,-4.722049225367686,0.5296861329492879,-7.493516382864279,-8.391012202049248,-19.263505517149337,-62.885597081453035,-44.164631083864684,4.515042720023387
-0.152,-7.595402625928808,66.86441041837394,-2.0054050490297635,-9.66498989401714,-1.6907179057025696,-4.230568206427975,-3.204978116972597,-12.350131550355222,-68.90836452546414,-43.98467476319019,13.759093397614544
-0.144,-25.254792783700644,69.68665863966096,-8.784670746750779,-16.3240392677444,2.6131319066644667,-11.87414349666029,-12.316728823332308,-18.850740121226067,-67.05300369671104,-32.70895158641871,9.76946907369697
-0.136,-33.958835720534644,69.4825099613636,-11.783419226804327,-31.634544758261377,7.587445513910386,-11.29581933683338,-10.175150508319742,-31.354234638491427,-62.73907100709755,-27.86881127783239,-4.142220346673391
-0.128,-16.71571130083774,59.796058902199526,-5.463530317439164,-41.398364716838174,4.563961924025578,-0.4129921959743121,4.098249259584742,-27.896291421775498,-64.93649708031704,-36.24353232868738,-4.553822717467959
-0.12,-1.8263334447660367,45.35557907671737,-4.210713505025323,-31.147595659335995,1.7138278950414654,4.9726027844855825,10.840226517782057,-15.122145593968266,-49.524042689798485,-37.11254072020206,-1.3694895697727218
-0.112,-5.60024572749833,29.242112603731837,-6.731092128642412,-23.154854224922538,3.6308790665503983,5.510206111434018,12.268523262842685,-8.513674857774651,-11.496245674219933,-26.944378084928072,-5.804294606742855
-0.104,-6.510972379175162,14.039592051258536,-2.6108127652788435,-33.78251806982832,1.6735048140226447,6.770068135611436,13.024405616511318,-2.337610702356546,12.259519359554622,-24.875572278470298,0.3176078867651598
-0.096,-3.5280510455107317,8.84531948046199,-0.7685058249066796,-40.69380279392722,-3.114753992044789,2.4899528408766427,5.836652866355646,4.598897727000344,20.124100797241173,-33.51431919235258,18.024781287475484
-0.088,-13.581050343557493,13.068265976525213,-7.990146839099051,-29.37608687276135,-1.7912449922523925,-7.271224606970946,-6.407920666364897,2.870839812814598,52.8672494451868,-37.763475728208995,21.730770618114665
-0.08,-17.483799626328402,2.2201817465083553,-9.415095448861482,-8.314772660798443,1.4812502741933569,-11.332958782151485,-13.67056680366929,3.056948304998525,105.81175188677018,-27.253531540187726,8.941232929937005
-0.072,1.968159510371883,-41.570382076368446,1.5520475640521603,18.331036534535507,0.8077075804722902,-6.017523346524119,-12.397371149482069,16.072886656290688,130.36257112209935,-7.874078703633982,0.8698538077303624
-0.064,11.79952128867124,-92.5455888409675,9.982169741980998,46.125150962277154,4.066592267993064,0.4526388740793882,-4.897849564211431,23.9440987367124,117.90304031091425,3.1843102797172826,0.5352124732304813
-0.056,-1.8776759902491211,-123.14610042323416,10.01573600797634,64.41616753602504,13.08799577485372,2.3380058034958484,0.824209478859115,19.324341830395948,104.92911845705521,11.053582284219479,-5.420405056869745
-0.048,2.1942878038856697,-154.45798929259465,12.74844502708979,64.38062249204907,14.325403991514259,4.387317752795729,1.1504953998860648,23.017852559270477,108.19997566367705,41.32692671709396,-14.686380692003771
-0.04,29.955587224336977,-187.6547811872684,18.110708808789116,43.69490857703187,4.43432681359198,9.441342182571914,2.6364564820296605,34.91969210166361,105.66524722354879,83.3552429442514,-13.920977233485814
-0.032,37.90641346502442,-162.83262634728302,14.361209196678116,19.441241120886197,-6.097065495852239,12.040952407348856,8.145394793150455,35.777457364070635,78.23778744110695,104.40628683174911,-5.286196803959175
-0.024,28.49547003116305,-78.81043091831106,6.45392292482189,9.295171432361448,-15.77227916126962,14.434879929640529,17.65125270784132,31.673933532708904,39.73110195094775,109.9931350675663,0.3239636604018152
-0.016,32.049540395532105,-22.398063484429347,8.870832599212854,0.4096217119823337,-24.54111136271524,22.430312987524534,30.7350621229275,31.11927191003433,7.112695712069018,109.77774630053149,2.4418079947871485
-0.008,30.612401157896628,-18.491750384029817,17.492514467681943,-13.031184293821784,-20.87348117594889,26.729847979247243,35.89647514148755,20.10771189607027,-34.38408283022083,85.025116074826,1.8264638061144922
0.0,13.448866038884745,-15.225886020648204,21.883793945969977,-9.600621704009152,-5.8071274679747695,24.0032898778614,31.79449413718145,2.1362612580122686,-97.11920235859364,46.15496464991872,-6.9062260286089945
0.008,10.055824379038768,0.31042974625395203,22.71692653076753,7.638866829097248,4.51713814735013,27.537402540622317,36.50856277490481,-4.711775891248162,-153.5485143784911,28.44199575974315,-23.899438585265997
0.016,9.769594466043019,25.0769135383095,16.209926751520808,19.908336559896313,10.247445040935164,31.258346011373977,43.86757437922878,-11.516240152732886,-179.279984227884,24.106265398656127,-42.48557363780489
0.024,-12.118471761656929,79.06647702718705,-0.05641139853020456,35.35067322828576,16.48560538411092,20.745347189527862,34.74774034615169,-26.97166005499905,-189.81660090173966,9.656849094803528,-51.3618741425391
0.032,-18.35409593687392,134.06237044515035,-8.514666867278494,55.95965353239844,10.497258129172586,13.368541188727914,28.111651217379197,-27.0299144069788,-199.9161124605379,0.5245262404637422,-39.26721370413865
0.04,5.990350176736101,145.41579358844132,-0.7740348532307477,67.53990761072798,-7.640305141426094,21.06876245194069,38.51147710444452,-9.60749053710767,-199.59365452842607,13.350636356669375,-15.37643273049591
0.048,9.712476128838519,144.1580125804109,4.907355767163841,75.49765246437661,-16.86320318619691,21.717885221137276,39.413917426523206,-4.221661008649586,-187.7981247417755,29.129867645348014,-1.2651301401889277
0.056,-10.420818968457882,166.56129219746964,1.9344340051760296,86.7264683945515,-15.966648949577618,12.598477251883168,28.666179838397138,-10.597642002502877,-182.49641972307828,29.018698856881365,3.231513070729074
0.064,-13.37602289022253,184.59511662792153,0.9042509687191598,99.44095000924202,-16.32836785098653,13.414546332029799,31.1537695060365,-8.333545627150656,-186.92360321694056,24.61060349389221,3.6587068742966364
0.072,-12.539271498145139,182.3617852217751,-2.0772099321114137,118.87605598148062,-10.581813193332238,14.72094737588467,31.50609754339766,-4.510050389380327,-174.75446655902394,35.68247223668331,-16.198310319462042
0.08,-26.127474601199754,177.27362381326373,-11.125071962139623,129.57176235896532,3.133101126369218,4.496074790727308,12.3807410928882,-8.702359958674204,-133.18658877138012,60.872318119267995,-55.965330890712345
0.088,-27.91001057577729,158.762428930387,-13.027694929688225,116.9311421881023,9.129602190316803,1.8232465562242905,3.8338127140707567,-7.516039340994425,-102.64192043329813,85.41766973541148,-79.77957033063338
0.096,-21.47495918215961,112.651404211603,-6.882159617968687,115.00072237525903,7.82556161398563,10.529712444262293,16.504322317297504,3.4234342599764425,-116.91437712306707,106.27181671831217,-71.93104121102236
0.104,-34.17362127234804,67.1474253155411,-8.267701457340303,132.4547834040889,11.38463396177503,9.202739582443,18.628885955644673,9.280071142144203,-137.06433397190065,128.08824333764125,-58.82608722997524
0.112,-48.87044075224914,54.14832450353766,-17.597866834934752,122.0986538367945,16.441520708495705,-1.2492982303425,5.014949418177683,3.5101139698702117,-128.42365820253923,141.57586669528672,-61.376010547636255
0.12,-47.64702164572118,71.033242624289,-24.58344603056305,93.32963098427653,18.031819289103115,-6.606469625968511,-3.8134181860659795,-5.949904163105144,-126.39600539132091,132.79415558912044,-69.73586125688355
0.128,-52.606016647388294,95.13993455995272,-29.602735242759355,96.43784527836658,21.54692916390607,-10.633743896848031,-8.052216868643493,-12.743864796961425,-145.26714021839362,110.17099261671868,-70.55974838640904
0.136,-69.17964877105348,106.56634982120106,-34.68006519801044,107.36509469590612,27.493659633398742,-15.63139455940078,-11.839352541162967,-18.87457737513637,-148.70603109898713,94.44390162053631,-70.02466376782637
0.144,-74.88378958118547,103.20755835675497,-36.62985609341962,91.04296104587284,31.185225865294683,-14.37280480302569,-8.347994266532075,-27.0694109377253,-148.41922263879667,86.51993843739247,-74.230087301796
0.152,-71.41750499775499,99.73091469403404,-37.71859838901041,81.8656488680238,31.486633797416395,-11.724819043154506,-2.1008110910123245,-34.645787525493446,-178.472079140744,75.26121154172496,-68.7981719016889
0.16,-76.87163084886447,105.62022264681472,-41.03703851799717,93.58689570206998,29.068326180569134,-14.357938012575119,-0.6510901620206554,-38.92535722361783,-203.53472041938338,64.55565977394063,-49.907956366668294
0.168,-85.1763932651744,114.91642558785728,-42.11005340878828,89.67022825921224,27.147405145002192,-15.36448301859205,0.4807604975483254,-40.64667537842775,-191.9474966324031,60.33562820788794,-42.36186190334218
0.176,-84.96377001378077,123.61020284193525,-41.02472145911265,73.38487552889265,28.88581756173218,-14.159837636960807,0.013073569899327148,-41.02274545398825,-182.88926798256327,53.165855211871055,-50.78451991161906
0.184,-88.27268321402413,140.88956092389364,-45.398970052127765,78.9614104618603,31.27052984147336,-19.386269010872276,-7.143705042035146,-43.0948960492958,-194.0355513207445,38.317070215420074,-50.37888311223282
0.192,-98.37846064028697,167.94790045185906,-52.78213365701267,98.32966932074125,31.028661013265815,-25.116408173797073,-10.76279966032434,-47.499049114398986,-192.93222222852262,24.79920558111339,-42.735367106869425
0.2,-92.28362978261464,185.2213690291909,-52.497123698495386,101.68872379756033,27.80027952672962,-20.770531506498457,-3.7630284817077477,-47.544386140355385,-180.1484815745982,17.694833156621055,-44.39772539571172
0.208,-70.72251156657624,184.35476622720597,-45.081404427558994,92.4071126632725,20.829060560677707,-14.578374164185071,1.2797007363364252,-42.94125312653978,-179.35095307268722,14.930044628923133,-42.1223076622446
0.216,-63.086552851768445,178.74780966817627,-38.437962700583455,93.0950722174395,14.989330487674108,-15.187666453655517,-1.304160947968453,-41.83877598650204,-178.65370255455736,12.335646230346118,-29.84996168307111
0.224,-67.91117086406878,166.93913991740186,-34.60984946778395,101.35577974471397,17.206878838537584,-15.696774149018534,-2.4894821843558876,-41.015426115962335,-160.81826770857575,5.175259473109565,-28.375024459495204
0.232,-63.394801921425504,141.94249635558242,-34.12724165236535,98.3629373345801,22.24815945046063,-15.713672150653478,-5.830292162451916,-32.83158070546435,-130.72482095305688,-2.604004816822011,-35.630320427067744
0.24,-52.616055552723225,122.20895022942898,-35.03201230991825,87.21672033916468,21.712740354540024,-20.37357148247917,-17.728671472468694,-22.079350803073087,-90.51462564084147,-0.33852909858545954,-38.0868326616527
0.248,-38.30904118513863,112.46555092434329,-28.847511251895607,78.20605634712386,17.810279329125667,-17.761128945600515,-20.574182343410705,-10.954104464047333,-52.20521999193171,16.17369988114069,-47.92908344801655
0.256,-18.04404238385947,92.6191407790482,-17.626844785057585,67.1981150553617,13.61628730206393,-3.0326511643184353,-5.025579197251533,2.696778701958427,-47.95238987195249,43.82829362082003,-61.18075105639135
0.264,-16.80041394608437,74.48129231321323,-15.646303780796632,64.77873654060106,9.430394528437535,0.6255596822641362,1.8818902162097355,7.194454542743904,-75.05962198246733,69.04557349933799,-51.17337191539203
0.272,-40.26960757411904,76.1074280822331,-20.962147162849433,77.94519298399435,9.675428732483136,-12.852557042068216,-12.153318519238013,-3.1361306798205755,-88.4828697017325,70.75436778191826,-31.18827007311109
0.28,-44.812148956775125,70.3324301390207,-17.91066596116498,68.49677683230975,13.736025633669907,-15.944452645121535,-18.09883941831509,-10.463731673339021,-76.69073957268125,50.17130059386574,-32.49587172493413
0.288,-20.590472359412548,49.13339168529899,-8.579875329438737,24.808818647546456,13.821203705141873,-2.63814623313782,-4.790152506878538,-7.271840297872414,-70.17408572621443,32.02493167460552,-42.950403376837
0.296,-9.526984644526122,47.67489755528459,-6.458629105269995,2.5674300388098845,11.278452662508482,3.558677601811954,3.383070757098395,-7.6170478271076885,-72.85502716501219,23.911763915213225,-42.64743821545646
0.304,-18.83782558291524,57.808159289381614,-10.398341804130977,15.808510171319904,13.074445237247755,-1.1028265708151557,-0.5530196271134188,-13.146506559474995,-66.63433124176119,14.518790621917441,-39.71613172421971
0.312,-21.068132302806983,38.83417396170031,-11.188908787630913,19.877385321395625,16.216908806029686,-3.0395469456835538,-2.605716687363028,-11.738430906628782,-63.56113348804986,4.451805246566908,-34.125304956422376
0.32,-15.520381656457912,1.7959467656544263,-6.912845886411369,18.580649560338475,15.469234736687076,-1.699499812971643,-0.8897502705730205,-3.234845724114069,-79.81256605813032,0.46737292332714453,-16.99244644170025
0.328,-14.805205538773736,-16.944907157545277,-2.2536204997263973,35.59798183826839,13.458973218292508,-1.0166347426837714,1.1549522260712877,2.54111083795441,-94.67956507709731,-0.5799320860785325,-1.095066749057652
0.336,-18.717871094903632,-8.776084292500325,-4.750107531886185,40.65748194242622,13.108511272839097,-2.9746172197142524,0.1498061852457142,-0.6975464332829114,-87.79173029042393,-4.515330055717237,1.0728993012572712
0.344,-27.180468344328503,23.007928825626923,-14.772402494512862,22.928760811311733,13.79133263282355,-11.800590418725088,-11.08449365049983,-10.83915810646772,-71.37908242161043,-15.811616435757797,-2.4278361417560994
0.352,-34.21268219684652,61.82392056205195,-18.763376392037138,19.722738890219603,13.593338906657225,-18.28171609821489,-20.465701344270478,-17.266693528014258,-58.21048227210123,-31.117818099613856,-5.7886838133474
0.36,-25.403862601578435,73.78022693501946,-8.705837378507152,24.95380034493831,8.827753102256144,-8.4787900243927,-8.227727497883262,-14.384521876020402,-44.022506059700426,-33.18448511531428,-9.735095991987702
0.368,-7.976144923251655,53.5241329112135,1.7037076787584675,5.976215170977019,1.145439182256004,4.437008847649767,8.424432945842817,-11.397723219265854,-31.728208875434465,-18.034946806282825,-9.110075108242846
0.376,-6.301500502296117,31.42273357448181,-2.261155532600301,-14.377661962677688,-0.15211884219988553,0.3760714540151066,3.3274778620497996,-16.038148356156757,-32.67325248527306,-7.576328206292913,-2.7227189978248454
0.384,-17.589681155459388,24.882861854433095,-12.886714197324274,-8.21459899212079,4.155574925678804,-10.200943653265721,-8.449534164606828,-21.324273568438638,-41.03207719186758,-9.810440468482806,3.6971871185582903
0.392,-14.210284247005221,28.148415137917546,-12.469274217494272,1.090410266016443,0.7893500215839914,-9.040603674225991,-5.954104203805015,-17.316549315388688,-38.261009393690856,-8.875529120804377,9.805009723072162
0.4,3.8106722388094885,34.34429327758022,-0.9247881774272534,-0.2668843056655122,-9.71715248880044,-1.21373573514687,1.1643720730202527,-6.181009779691494,-22.60468646499258,-3.288018647471543,15.614318689783934
0.408,5.805366019641672,37.735031279514466,5.157853842516462,2.6087662632256,-11.319162536633327,2.6143388341789238,4.711028248846783,-0.3685063792442533,-8.768566014028888,-5.043372666974919,14.335702266735773
0.416,-7.732543015346017,33.11538080195296,2.2658653859733398,1.707725557596618,-2.964367710680214,4.352220187016552,9.417997715521622,-3.251567026169958,-3.9542411824464203,-13.123257507658046,4.880025104060928
0.424,-2.936786282643931,21.00843834666814,4.784933503507721,-10.774394834907204,0.7013387601968424,7.238925783396795,11.019666961764182,-1.6496418245363544,-6.872373765029002,-21.60672227001946,-1.7415977530760502
0.432,15.838362449427496,5.513688597569989,13.391853069909203,-10.943340014637979,-2.608503068872188,9.459676650080436,8.573538772848972,8.175183874870465,-14.91535477576492,-26.775541205716387,2.858712550984422
0.44,17.06110592612581,-6.119923180447445,14.441568222396972,0.3948463787654369,-4.799747274395415,10.91425778295244,12.386430465588768,11.112561509987668,-16.429116463483478,-22.13925204964065,11.464342477620672
0.448,14.321391729928054,-5.000223606226531,11.4640424748868,-4.575922576693998,-6.486212227131489,11.72569204863515,16.244483551686706,4.708080826213238,-4.10040855921942,-14.001798360840423,10.880559485141786
0.456,30.280114569824395,7.649092987637956,14.3152813810907,-11.932820170560177,-9.785345087474552,8.622134762574987,5.9294283979828055,2.5555477781056326,4.486294272856839,-17.15001713949568,2.935292314542101
0.464,39.12841022579934,17.58690326996969,13.819762254751462,-0.6553515589031433,-10.842340783648265,3.0720452237441647,-5.206770511658399,3.657344181197505,-2.4104133850783374,-22.29348567285459,2.035540399307639
0.472,27.141187856470783,13.05668323030584,6.33504267803687,-2.053075403265624,-11.17219876338818,3.429685794748437,1.9016744792866274,-0.49238691416109837,-2.978332140391021,-10.239666104715972,9.154558533911416
0.48,22.75294592699452,-3.918519272875613,7.663651101771954,-31.3059132843422,-14.275607758306661,10.985205670641575,15.688385858649116,-2.6286977368065196,14.913864486083709,7.3704871994008405,11.559195830373902
0.488,30.28721116821042,-23.735932902075966,19.205144100788463,-48.5817792137127,-15.829904489837869,16.548406160042617,18.62938811087971,4.661852284993226,27.09455993730939,7.997421384203432,11.005854645783879
0.496,31.765196910838334,-39.21445019308467,25.06863578324318,-39.95070122576539,-15.491063433816697,15.26126404469448,14.302546604058257,13.674410379542511,23.07685556480312,1.0436115353337654,19.79057766403058
