time,C3,C4,Cz,FC1,FC2,FC5,FC6,CP1,CP2,CP5,CP6
-0.2,-3.6846311478647324,-7.830162461372471,-0.8179490045448096,22.85651882794897,3.0005132933988374,-8.68737213321061,-13.006987021088575,-3.2586044411070523,88.33076778640178,-34.09773011402043,1.5461042434280157
-0.192,-15.718522184795107,0.3615458700478044,-4.573060280926271,21.83970694218946,-0.17095522409316255,-13.166118022622259,-14.313510413614322,-10.29859086218305,65.95135344987985,-30.63778017097186,18.366690580202437
-0.184,3.6281310403373843,1.1630018355751985,2.7811569251253423,4.4626521946363225,-9.781869215701782,-8.528285397983655,-12.216105937167587,-4.623252487005191,62.2155797918108,-13.208129330835007,20.543353026076794
-0.176,15.101688917896329,1.4761182586064843,14.0514071667193,-6.771783472686013,-12.737704714288602,-0.32136146383732983,-5.69765291822359,-0.8222473585574269,67.87932009966264,-6.41879182487153,10.612114166739993
-0.168,4.0253714594340595,2.131059948503678,13.834254517589361,0.7771401138252014,-8.466958255319522,-1.3749428544369757,-6.0911777207368285,-3.259519484578975,71.53378813053351,-8.927149430986482,6.837097957945073
-0.16,2.6570578346364213,-8.766336081276378,5.061891421929915,-0.11735692678019077,-5.028681379986436,-5.6594577205035765,-10.79290986842864,-1.9209635322624465,72.97397665902595,-7.252164137792011,6.037100826022733
-0.152,6.5124895335583615,-27.330332807621602,-1.6243705597514881,-12.970464164787124,0.6119923409361696,-4.569174174442156,-9.208802861648529,0.9675818055544413,71.4980670980986,-9.284977181349591,-1.9335548897083277
-0.144,-1.0711226342412226,-34.380352490328406,-3.6507328024890935,-14.300533565270317,6.317383654039315,-2.266709793864542,-4.512822620535001,1.7053412941097887,75.60276401700712,-14.146784193779975,-8.098621002851898
-0.136,2.9964019112030083,-26.59389679583301,-1.7506442709341863,-5.28642672183574,0.7961788177822127,-2.1757787103898814,-4.256191449903378,4.235439342231475,92.74117690713052,-12.111238059911821,-1.715434241275172
-0.128,16.62010985013071,-17.346449661011583,1.6533643045460291,6.087319713642792,-8.120267761048844,-4.469897623146625,-9.259785351012082,5.411183218756133,108.18752964499367,-12.778268771525832,8.368864242731712
-0.12,10.270494809510366,-15.418048769615794,4.643009110984424,22.269990958797155,-6.148291528135844,-7.472761029432789,-14.446511116135065,6.7223813806285415,111.2583837215566,-17.97007573991797,9.381381352982617
-0.112,1.9450838523877807,-26.288564346881717,9.308489174852056,28.269054972918006,-1.2236780915702472,-4.512021359631706,-11.735142481063747,15.836874024848894,109.35193617512395,-14.452203021121502,4.406039047334104
-0.104,15.384444761343936,-55.114721142321166,14.043657527292384,14.224088048378041,0.09340761413914773,4.191520410040287,-1.7267929963937803,23.112569759091134,96.66465238171943,-12.739325951424142,0.7689811053104987
-0.096,27.98788423331487,-84.67174761376495,13.972909198379313,2.6248392049510083,5.088620771394832,9.786118357432501,5.729974928746954,22.149955510914,64.37583960483298,-24.6970708641696,-2.128636413383187
-0.088,28.51937363809203,-78.54670428345653,10.2134142880642,1.1897452458513091,6.967217997182413,10.48543666365487,7.666484390250498,25.765391116060748,33.71390946839451,-29.208288236905375,-0.9659983261471108
-0.08,30.07225151764271,-35.20765345856123,5.392483899887349,-11.543148119131253,-3.6054097112076566,8.930683991021795,7.410493051956261,28.0249575646884,20.49438522420747,-17.63891737632849,9.64885311879844
-0.072,28.150318791385118,-1.7147994066837366,0.42567458568435396,-32.45359743517472,-12.134842907846572,4.9519824599522675,5.29908450857906,12.98649384722627,-0.3086169606889152,-10.074889589030759,19.607255289980912
-0.064,18.21478463550467,-2.691607762508396,-0.49751368390260814,-36.570692123431684,-7.744580930113959,2.5408999385200435,3.7650365687885605,-3.230371521512104,-47.49566465698103,-2.7646060366339773,15.531194161133932
-0.056,7.880059928811949,-7.637409372829887,3.298011766117555,-26.44667269110666,-1.1127299460922626,5.2543844256537975,6.59020238332119,-5.251207615236176,-95.48608012877587,21.37652712642917,0.8034904534469632
-0.048,-3.7318094671602036,2.3995607100831022,5.155714498289345,-21.756139794494043,3.073800760485312,7.777842347289102,9.642392235189453,-7.077064079100791,-115.37552748286024,43.81418790132716,-15.31208508115315
-0.04,-15.127834516148368,5.551739675434036,1.8368581804669841,-23.401455708426536,10.383037837790727,6.143959817227179,7.784424484988037,-12.44589881185925,-117.13815109221153,42.46916956482388,-27.997593693307874
-0.032,-21.046292781457925,2.192053324933277,-4.749489275585529,-20.61926978820573,17.575223504981686,4.635034877196772,7.191578826246603,-12.553504863341027,-129.121448671715,33.916326279014314,-33.828886962044876
-0.024,-28.70035754045844,29.150979216230937,-13.19409076285999,-8.435484427332677,17.456696991620152,5.886982656086948,14.726627013468942,-14.928948152922983,-156.14646294763676,36.49695246827639,-32.29603167905253
-0.016,-40.3152179490469,89.78695329799191,-21.661693398283195,12.145671006240738,9.875371529849566,4.083542950396888,20.23556302213228,-23.013231226195487,-179.76584336417102,38.988762527090586,-20.752054862789652
-0.008,-46.071342955989564,139.7990944807047,-27.100800111758286,34.33154303189797,0.09570221951080014,-3.909259229666556,13.383635775938624,-25.026641041038015,-189.48487128528654,32.697658839278176,0.802733089717735
0.0,-44.498815538027145,155.5266798359556,-26.051952414892373,49.59475467738567,-5.059177667706262,-7.555249381303812,7.8388955663446716,-19.20812338720985,-182.45076357005232,28.64880532533663,11.767644489861805
0.008,-42.116672531590474,159.72449679153877,-19.910905338839573,56.62391672185447,-4.121304126934779,-1.5104296713539713,13.45889079436922,-12.124880829588117,-145.73423555139328,27.522392957833556,-1.224190314406033
0.016,-45.1389584972682,170.05767054669656,-19.43167364293643,57.46429063033,-2.0749996687519965,-0.5624505430582615,12.714969337916525,-6.585810464517706,-80.394250086234,17.29031553260981,-13.811452472931864
0.024,-53.71604190553933,170.24681336156263,-29.155303826858223,53.29490237685581,0.29850376872820006,-10.012795087346007,0.38180063044060225,-6.47420279981,-23.575830029543543,6.8115515016675365,-13.259851063481335
0.032,-57.45829095301757,149.8928623106053,-38.04956342034256,54.77326610643422,6.611465265395287,-15.775015438838897,-6.76686275154141,-11.285919368150658,-10.912554997295306,11.68246499636474,-21.097480795336335
0.04,-55.630625822704104,130.16452325236637,-40.643097234367914,74.04504769694788,14.038630726083788,-18.34329633603594,-11.480008752850317,-13.96392842276421,-37.06256522508945,17.1085676882733,-31.549169719419556
0.048,-58.39495565800988,125.3911752518235,-41.068562566075755,95.25003782399236,15.542325609209156,-24.062851503191478,-19.291571315991607,-11.26657718668559,-66.06959144925284,10.831856386801025,-20.718628859399125
0.056,-60.14717146685812,123.37061955360168,-37.338976339698455,90.62033118786279,11.503595626669844,-21.386168916322134,-14.889506482968278,-3.8958657573925053,-68.00766125894265,15.384185370910211,-9.73028608627127
0.064,-60.54324827072118,123.15919858811944,-33.60846263927853,71.42947758948789,10.723133706611794,-15.108230188961878,-8.303422978990525,1.1013104135025238,-51.19990900912219,35.94609258936546,-22.37081056487992
0.072,-75.5391636623781,136.40050668878303,-40.57897482549488,68.10429464697135,17.782768961569506,-24.0738601507712,-21.875312874121438,-6.099562816914995,-50.14852986089355,42.012888028240084,-36.9638691936255
0.08,-90.27871545350769,147.1893461865125,-49.521306452797006,71.59750089176673,24.732075307852263,-31.673975184857813,-29.332679933059392,-18.143754542863235,-73.87174834968299,32.65962169802784,-39.71680538019262
0.088,-83.76946373560801,135.42834150220034,-50.956483429934245,62.77257883236046,24.543293764059847,-22.492992879959576,-12.766140524672606,-23.617034582749522,-97.67210405046295,39.49602219596379,-42.120016718135076
0.096,-81.10314773970354,118.0454570045888,-54.13782049602347,60.14654990636553,23.776048764002812,-21.75632705749624,-9.995342012558066,-28.64257679545242,-106.03047964980865,60.64501590373097,-43.87315566904551
0.104,-90.92808976159051,110.17949261107175,-54.52866332586909,71.81729751907422,27.599709104065283,-31.313442392033213,-25.201588594014606,-31.909436642156468,-108.92743628707547,66.00473967928923,-44.24639980790712
0.112,-84.06046176147795,101.139544582068,-44.90311931886438,67.9001797180427,29.595874098540975,-25.412556918668006,-20.77165960885025,-24.924005686486442,-121.2003536751925,51.6607308789833,-46.12724093145138
0.12,-75.53054643782426,98.41859363944843,-45.562984757771176,46.376305950968124,27.67485778315733,-18.258155475778732,-8.837902208088627,-21.387733128430828,-139.33357875110568,37.947730990097796,-38.39254124593186
0.128,-89.71960873547843,113.57400035183286,-53.39068550868197,43.44312220338328,25.921214529550443,-24.354932670472326,-12.407173705127994,-24.855238571073773,-141.7518711383746,35.852837127558146,-24.727122432821062
0.136,-88.56704135449641,118.2965198701257,-37.05305483868778,61.1485292743338,21.176424554757023,-17.611895718785338,-6.553653504337876,-15.018930819528213,-127.49246740443381,39.66118107700904,-22.40735844706823
0.144,-59.176990646751726,99.53667074760506,-16.221674210929233,62.933753482241,12.457006625719416,-1.2538446831024106,10.789126935450513,-4.441666309868905,-128.22558879231877,38.1716311758312,-19.504414869565224
0.152,-52.73639671184339,97.00379645338734,-28.653145954815283,42.8847322184926,10.003859617889587,-6.554620865895478,8.369794648434832,-20.20572412222749,-150.2640023430454,29.737503146546878,-7.85447248403028
0.16,-76.66962196446921,124.91039004702435,-50.7654887219893,37.95221049814794,17.70588892776557,-23.131056496772437,-8.753810068833683,-43.01890442778739,-153.80042752562875,27.22936872353199,-15.41592096949546
0.168,-85.48126793595222,143.89279183798448,-51.39153410783714,59.357085518621005,23.939036043627592,-26.7560782832382,-17.143252649942813,-46.55477472527321,-116.85247712931172,36.61946603177711,-42.80352329702375
0.176,-61.05353883398382,128.6637141777445,-34.97719181265117,62.93649225974781,15.954043356502833,-14.022609322720697,-5.393534325599251,-31.882994461205044,-67.42794705432854,39.11412436540452,-46.19113136619796
0.184,-19.164236731747692,91.66537764765599,-4.893686556367075,28.13305637136352,-3.169466173560453,13.529783242962857,27.723783004412503,-0.28248444702702485,-39.53787380674844,17.766772983940438,-14.740659081930238
0.192,4.1002587098616745,64.46850457495194,16.482079024783722,4.165334925892235,-12.335144223603482,27.568677437424295,41.500700384072125,26.079389016865267,-31.46509426542988,-9.63530619354953,10.038510351200639
0.2,-17.546429688678266,76.13794492549748,-5.143857689025323,17.17513069145056,-0.15865362092494362,-1.0126281884575854,0.9271568404208436,11.477069649507854,-20.223445120826117,-15.874701378214477,0.0067957213618886035
0.208,-45.41751353481588,108.84193735506352,-39.37300864024007,26.213202036534543,13.537453744658098,-33.42631170599519,-41.231167375058824,-18.97932243124498,-8.573394391148511,-5.2048897033093855,-24.432949947552146
0.216,-37.13067221393767,115.42714912813844,-38.87692490544193,20.389126087765167,12.461174361329334,-29.032816653923476,-36.631856105751474,-18.766431572434463,-20.55352411706586,7.709910950134729,-35.280069101318325
0.224,-28.052287929999416,99.13117005350838,-27.843117391213934,33.469323905610736,11.13909059136119,-19.106454976776828,-25.505078332646686,-9.351967982570232,-44.61240478666813,28.027801846989693,-40.42816259486655
0.232,-43.16288175215764,93.80095855854381,-32.75940596101873,56.13666502675451,17.1782429303742,-25.367394410557118,-32.589664593118314,-19.98095099081455,-47.492412176572685,51.95275088736361,-53.116123805515976
0.24,-42.09857707011422,90.95499411816505,-30.360590042001594,57.02737400194031,15.783905234379526,-23.650087754691185,-29.674635405133085,-25.142497719962908,-40.27748564371753,54.6883707086228,-53.86961257520242
0.248,-21.316885380866058,70.25212689641894,-18.4970733685621,44.05089916153496,7.884943166470918,-13.369923218032808,-16.728526075723625,-13.290078635678054,-54.631170431031755,36.00976163553513,-32.15042692047603
0.256,-19.420952220309847,45.20775192020538,-17.571250866048103,35.9722879505699,7.6647069946089115,-9.874898863177789,-8.90019502876282,-8.891242568016471,-83.27058864353442,24.06407897310446,-13.661960418709182
0.264,-28.264829278603496,31.41232224717862,-18.34745856949989,47.659164601376794,10.527409642423345,-10.01179213413387,-5.757684795014812,-12.936132677724414,-101.47969901208639,27.627268200743107,-8.831591263576772
0.272,-27.063820802916947,25.529418682722312,-13.025812496775977,83.51782678889808,8.19739826944641,-15.49205495144237,-15.134941704673595,-11.921506995760865,-105.37748768887651,33.81527255472424,-1.122074173716872
0.28,-28.120749680543252,19.405159391779872,-13.693862061694063,97.99922906512529,7.143017977400148,-21.97372212488771,-24.275498051433505,-13.256551426690327,-108.92466623462873,35.041421990825796,7.4325692905384635
0.288,-27.58081331590478,9.910253510805322,-14.480864233333076,62.56100603316698,9.58887321722912,-12.313387032080794,-7.775896228326862,-20.101405812348563,-124.73965231457152,29.28640770384704,2.9420173307686595
0.296,-12.157614434293222,8.377911936159343,-6.0441822931904525,38.3252772263709,8.959566544970771,0.8816526795271471,8.057989071717296,-20.543392689234413,-136.43342593723233,22.07842252388551,-8.3481916913758
0.304,-2.421008793273956,23.08746905609669,-3.453382410565581,56.96924419660561,5.489518214473771,-1.470962953650045,1.044358642974548,-16.50604196331373,-117.81952027245423,23.114768493329137,-12.717520497991742
0.312,-12.881070275344888,33.52767086717894,-13.342838327825824,59.90849855890255,4.73245734222564,-2.918929916476433,5.283405316873384,-19.636190567457497,-94.64304817745267,22.861422015484884,-7.559004337277638
0.32,-24.084653446546184,25.717944590498558,-19.297569978194325,35.14446908612964,8.217890825222904,3.010924002883339,20.708027096454117,-25.514140087445256,-106.91212805397606,10.121360915069246,-1.0319196719177806
0.328,-21.574407043683856,22.561868300237908,-14.188110223982868,27.160892168539633,10.924471945254252,-0.7606218836590152,9.831504006710166,-22.625497345192784,-121.95669459651634,3.287908189879962,-4.300755339298595
0.336,-11.418028357918578,37.71393146284626,-6.695615898532906,23.86498266840509,7.117666109766801,-6.3457555849583045,-7.753779961437245,-14.147448107331954,-94.49924287289373,12.485433527589365,-14.731737369908709
0.344,-7.142952370362295,50.59644686256484,-3.2039781009804438,3.225766188956712,2.6750068634908266,-0.5067441711441413,-0.9800409729770939,-10.253413934493143,-59.78063198823583,12.946245275304282,-19.265573259942226
0.352,-13.666299159902822,46.91975367771852,-3.427704033091499,-6.798546665806086,6.054277172070412,2.5526151584000454,5.3045409686024945,-9.58873965657864,-59.93621288461534,-2.507757280153868,-16.84680649134024
0.36,-14.076449990454897,35.58138380352469,-3.9149745176442816,-3.6503923079174485,8.469401889595305,-2.8100479121764517,-4.068439312451921,-6.479708013147352,-64.60083156047304,-8.500850255935593,-12.910538606266737
0.368,-2.291601374375308,28.560802450623214,-4.778790961688147,-14.99122807474246,2.2937443036310405,-3.952105222007854,-6.972293299942778,-5.562913171760394,-43.85797239424188,1.026877220927498,-8.717930784885269
0.376,-3.798431232741661,29.41401062637272,-9.15051250464549,-32.11057930934028,-0.4104865122506158,-1.895075298025692,-1.3621233657815404,-8.559369001678904,-19.40130375071314,9.267845990959632,-8.951310409174228
0.384,-20.32338470002181,29.072812172977848,-11.452970091927037,-32.678293367410035,4.862568672703426,-7.111374734020964,-8.812664323895735,-6.153163842756766,-6.155557137053056,10.115639509189245,-11.962319413388531
0.392,-22.053252628699223,15.755885752251785,-6.971164540350535,-17.51757864067722,7.546537231444697,-18.14171702431757,-30.001836787489342,-1.5073496320234996,1.3363314669667643,3.563942343389235,-8.120048886123078
0.4,-11.760711021154796,-4.273015767766817,-4.43137056762076,-3.0283996196997705,7.557635221643518,-18.66742121522851,-30.982352596857698,-5.557526735665605,-3.598861739339407,-8.955840017983174,-1.8861626265999953
0.408,-8.572238458735706,-15.840872316450962,-2.5944003984395994,-12.01827696583024,5.933986869953957,3.4191641846749428,8.729047281531352,-5.5467929479721425,-9.515476441663797,-13.500712350968403,1.1233677065662886
0.416,-1.2587322676987385,-16.976820695840274,10.79645200382928,-36.4251259116678,-4.2710582768434096,26.495983890967967,43.445314948354586,9.904520848256151,13.956104318493743,-6.107390873618072,9.249036677579642
0.424,10.58191625595654,-11.330441111060562,21.307849167802967,-35.47415693272223,-12.70407448697637,19.30003364491059,25.337501630559494,17.118893401497967,45.029893364734505,-8.14371872590875,18.06166134859066
0.432,3.6812464096638973,0.30062294963128544,7.6331696213826845,-12.472679433241586,-5.805714055344845,-3.7433938094804415,-8.3592767616524,2.6866305669599244,42.451132370578414,-24.261686450556475,15.713339063962755
0.44,-11.155418900148508,11.473372529978596,-9.895361104289403,-5.707975253831853,1.8593313769910882,-9.97346520050085,-10.979379986160245,-6.093206744212154,39.694288187750345,-26.105262553515654,7.935407391009549
0.448,-6.549945944822911,17.50536206411743,-6.4515268716869825,-3.4307508955707857,-1.5497131676295977,-5.873201293399523,-8.183388875620086,4.531688235286534,77.98118407908909,-8.441280448113512,-1.925150500444956
0.456,-0.9472457904389591,23.172984435475968,-1.772373828364378,21.017614061737586,-2.1295658284266343,-9.960140494990018,-19.406062399628794,10.031729921425395,111.93143762540377,-4.57580979320351,-11.457693982374034
0.464,-20.36378314126698,24.57017533467964,-13.735132039606905,42.00539504665963,4.280234939326297,-14.81076370074705,-17.34566911675765,-1.4555360185891155,104.1658458912621,-19.890594670657226,-3.9917197569726888
0.472,-30.52710794641563,8.217767742478843,-16.461718597119333,32.93542975572007,2.925323752897596,-8.239829875259051,0.0238015046253272,-3.914997241809795,100.89520758160705,-20.24738719695878,11.997040402183826
0.48,7.358414875606379,-19.95245560974847,6.983403020972793,10.540594519910398,-9.438302036802243,6.427046070444008,8.713315765815459,21.08462477988166,127.3877845643001,-5.222613340771398,12.316509557515884
0.488,47.81352096538983,-35.850523894562286,24.931598451038205,-0.06825044496979604,-19.884041428441215,14.376141252660151,7.708439994697938,44.07610929598639,146.39179455392315,-8.601311312120702,14.473156270557382
0.496,32.57940846242556,-32.69875865202523,11.914370170141659,5.454659488598441,-18.589931396972183,6.957924822514083,5.732324303381952,31.58518075158799,156.25992708705283,-21.80560359076805,28.629493346213756
