time,C3,C4,Cz,FC1,FC2,FC5,FC6,CP1,CP2,CP5,CP6
-0.2,8.363589068882144,-29.341020031045048,-3.5915998211172924,1.674059078529403,5.493407518189235,-2.4452033243969993,-7.368815054953489,1.7550424645044378,12.372481939868807,19.192679684869738,-18.153067518584717
-0.192,-0.572800446242888,-24.820795976351228,-9.959100439554854,-24.022269563892838,10.175104917330243,-7.472623427572066,-14.075897497588699,-8.495168347764041,6.7008947117245965,17.47251850117791,-25.67797234006019
-0.184,-24.754091815622086,-24.181271978227535,-10.956253755028065,-10.103634507343305,18.795100787265074,-8.140321526249622,-10.760231770080113,-11.544846291101452,-15.086104847225212,7.287855895885302,-24.42136387345113
-0.176,-34.57818356577523,-37.622143065975415,-9.127799995611825,-10.703835788811727,23.93306519346693,-5.692591193403432,-5.332783382311788,-12.306236308393723,-37.85125855483303,0.7652354765793801,-21.652149796139746
-0.168,-15.018211935629571,-55.96929339803078,-7.170701721939697,-35.78438540366341,20.1965871549742,-1.2449492734423533,-1.130372860140217,-10.726313836467122,-44.792055476362755,-3.692903039776822,-17.542685311364348
-0.16,7.154582278967985,-63.016847493978176,-1.7549084831064914,-44.074933683122474,11.094678521250527,3.643456240131849,3.9132683748245163,-3.7076987521553497,-45.19187859410089,-9.788590502849514,-3.856803576786877
-0.152,-0.7149453557326568,-56.99037400252051,0.34133104782358936,-49.67769090980896,8.77772542439877,3.7169836555320463,5.727555096442849,-3.0060838797403115,-42.920594676144546,-14.300383826875178,6.44393290847471
-0.144,-22.153263791909044,-47.206549891009274,-8.88601725216123,-67.69637310988016,15.308622982783955,-3.3142536690672455,-1.0350046694667911,-13.323401843407796,-41.96673543875,-17.062979072674143,1.8161014066157108
-0.136,-23.63484785610106,-34.25042000151404,-16.09536562002344,-61.01052483609879,17.583182768683272,-10.614350536321265,-11.879366678724763,-14.940061190894959,-48.04000749229315,-17.540350404691317,-2.7129649845672965
-0.128,-15.09802429594033,-16.124946962527805,-10.489576854700468,-34.75855359587058,11.936342662003145,-11.225133388337323,-16.180396344011086,-3.824262732322783,-45.34697630777593,-13.439932734975175,0.4137857544259495
-0.12,-14.505799090559961,-1.063393431899584,-5.5624262207923145,-28.6431221520292,8.2511633101,-6.332603458034749,-9.124880549070907,-2.6322918616606596,-32.45208671461844,-11.926410578708605,-0.6964056423183236
-0.112,-9.703938402978876,6.898780145625863,-6.137733320518428,-21.481703628204382,7.0597323423801575,-0.7915809011053834,1.6654889317667196,-11.728219060519015,-32.6353498902708,-16.171956777197202,-4.773804792578955
-0.104,-3.790464611501672,13.346819563292383,-0.009115454666656817,8.475673791002807,2.6401989309677063,1.4744625667060396,4.756266235258241,-10.886794422652569,-38.04152423249791,-12.689351642223695,-0.4251376241163299
-0.096,-12.899859621686065,18.032287968349742,6.426978217248115,22.970457796941325,-0.8410625445202349,0.2270893232549297,2.367459304657383,-4.1088877516222855,-30.821241680089436,-0.15796060648604832,7.394818438880206
-0.088,-14.600237357261292,17.23720080136041,1.3488926274738327,13.72021570215451,-0.94092514400235,0.4678537799929547,4.573586616493784,-2.888736203977062,-24.96160199495153,3.7004238498792605,7.993262232289153
-0.08,8.901163791802842,12.928975463282217,0.5393244908794999,12.905711992321484,-5.19936916303098,5.468867260041085,9.773618160870061,3.4732886027969077,-17.385950020172967,0.3906696623085671,6.210132668488276
-0.072,26.799199448662574,7.976962158775504,14.023905206210195,11.22941743569587,-14.705014135037082,11.953864299347792,13.150362172388006,18.07994071401924,11.11764713873987,7.13129367866373,11.427777324920951
-0.064,24.33845312851934,7.809848692676415,19.414609299045544,-1.8571430942016076,-20.237347585734387,14.040492886340713,15.28972057506017,22.351188769392806,35.91073242359765,19.000559174566387,16.82901991547433
-0.056,23.090689401331467,17.841628820244008,7.488668420948374,5.01115013154114,-17.796278754940452,8.452782381059565,10.50769754284948,11.846081849325495,32.32622721917294,20.910229865601245,10.426105688197097
-0.048,25.8505050297567,27.51304907282753,1.8115969677077763,27.67790788044823,-14.253251441212914,2.034729854512148,0.9670791309004649,4.7647535520879005,26.016621976435427,15.404971664073173,1.890863287683348
-0.04,24.505792994365518,25.548951548180288,11.353388586318074,30.082542653563404,-16.48683857059783,4.893640545090992,3.1107475219977236,10.542725436194484,33.4381661512048,10.30858181824085,8.232913745044538
-0.032,19.85050558104479,27.98469888524043,15.817454112692454,29.449438584770554,-19.468746941466637,8.161073114150703,8.905629747382392,16.167005044538605,41.198861321281846,7.1222296842170465,17.911034596228603
-0.024,4.67657464766291,48.5208388284504,6.285650418880052,51.690188458634864,-14.555959091979473,-1.0484742488402292,-1.4454118999092977,8.170019327834071,53.4099282150993,5.84103625664521,10.678487224456092
-0.016,-8.809264481338097,64.14543193703038,-1.949520691726245,65.99081243064194,-8.414112915067626,-7.985104194964367,-9.108253291800635,-2.5534564479575956,73.99499755584345,1.3912066924776745,-1.4472588375564055
-0.008,5.378954713209976,55.60512174655581,0.6901743123055851,56.25099924681548,-11.529268977979843,-0.5734094336725122,0.9727861615731677,2.824828285231783,83.68353690586476,-8.403327794965218,1.5284543082769215
0.0,21.923922544072582,39.19646060118803,6.148145923413919,52.68559508986644,-16.816737248223426,2.3453026692467254,1.760148425592821,16.697584884710988,87.32327036125304,-10.745344923762545,12.162924798068419
0.008,13.20260439144599,27.069423010295495,8.823730050466878,52.515355889821485,-18.430009806343758,-2.4854988643864444,-6.071819788538374,23.06380505337595,109.68687274503941,-1.9735171223172172,21.492108501140684
0.016,16.36159653921835,15.57013490907698,12.576459349055998,28.213955971025054,-25.65226836078492,5.367944546814861,7.258752443660501,29.326250072286815,139.03829048161754,-0.8606874483686121,35.244847737357766
0.024,38.4277152923989,14.703988838450966,14.517681046517275,6.177262725376643,-35.00892970706766,13.275073324310226,17.6766569803971,38.6491437490433,161.8467485103643,-9.619766750313568,45.000814428030004
0.032,28.405518838922344,23.9604639650147,8.73755092925686,26.31545795366088,-30.436623118895255,-1.1353898293276374,-5.371814165130148,35.02040587255669,200.46982685752576,-9.17787825212656,35.25453090777853
0.04,2.218638639872934,13.902331374258845,6.370323415741714,64.16651411942642,-17.60575301746853,-12.32590874945953,-21.193426029754086,24.789678879441848,236.9082648402031,-7.31167191466303,18.096662913430517
0.048,14.758695025195633,-18.99328449530968,18.05724413133088,76.49423908982232,-13.87810531166995,1.0152043681362417,-3.6380445211557295,29.776639810162635,217.5520428357223,-21.247704400471534,15.516429787485182
0.056,39.384990965211166,-45.60432621285794,27.29931407987635,62.14243398638004,-17.23732505386334,9.715110970188766,4.54476521665386,39.36194121416776,180.73421021884286,-27.83191285629109,23.000132995513535
0.064,35.887959581987246,-60.183335768654345,20.387823084212364,35.132029413228,-17.187371381331502,0.5720559078655837,-9.794437922198416,36.462335610527084,204.22928431068024,-11.637474150619084,22.058126785423735
0.072,26.78163965433128,-63.13453430023969,12.573696485277878,11.108416218943894,-14.039595319850832,-1.540375354609957,-11.776618711679998,36.11680597186234,241.99584387789432,-4.919456715605802,13.257302215190998
0.08,26.127725711563276,-35.547335667981365,12.469568562922506,13.547434747248632,-15.067748765500882,4.635623880073363,-1.649055764458233,46.63769610141738,215.63390458325767,-14.597297803841881,15.990528861582574
0.088,28.316023622882167,4.437057208804146,11.558646369318533,30.32668870372932,-25.154235355149233,5.221205911635403,2.685281247276199,51.31666633892896,169.98558650105792,-10.47403371892226,35.329655542590444
0.096,41.11605081743818,16.455441563406612,15.656953227544076,25.29560051884115,-35.955261177010776,9.973664211885986,10.783597148446407,47.61929128995312,159.4589643003539,-5.880241711216748,47.68986699665682
0.104,41.005529313348795,22.030302483229516,26.73951312205605,13.26220898306308,-31.53040746766353,17.537223214557322,18.418999818596006,41.85411716792938,149.09504670276888,-26.921526979989306,36.25250145955183
0.112,4.649050456003694,49.923798640565195,23.823887308592017,19.575450833103815,-15.096599761524233,10.40999533950539,9.68094789145065,25.15824142079246,126.85527238359435,-43.612741000055564,15.027379311658034
0.12,-19.77807756329325,58.68527117179565,7.480853357875771,12.778447434644493,-4.318772349892798,1.288980223874299,2.5132714947651986,2.5357086009871472,119.01445561017556,-36.158901783361785,-1.4293564371311978
0.128,-2.7604891793699604,36.007782491742674,0.7416593936799816,-12.645006098107054,-0.9392792508606435,5.627269078056744,8.329141959951482,-4.511378512699645,105.33199493368781,-33.15445231456147,-15.010969594520313
0.136,4.064505409465553,50.391507561188284,-2.0162612603793764,-3.138812476036102,1.5263837709073151,4.525834070827801,4.827541691348535,-2.338918630907927,72.69013634952321,-36.552130916440554,-22.79100253967813
0.144,-16.021775583056495,116.76277176219784,-12.987462317740787,37.648571707697435,-2.0885421611745674,-5.413962387440904,-2.827050754340657,-9.12179342935365,48.8752434005177,-28.49139040473802,-16.594402928394235
0.152,-20.17737266464036,166.45980675935706,-16.467929265593668,56.27577332635747,-13.051183795315875,-1.2093702806264472,11.473122011938969,-14.171657218793696,29.2214439873394,-28.25320121530749,1.0990392909292448
0.16,-13.429521554026929,180.2093425330709,-11.337823615391974,64.61533736177836,-19.827851902163967,7.408541488891352,26.986670173769756,-9.955505668879864,7.866581424979914,-43.25833415610031,17.974894539124765
0.168,-27.01119325928305,198.99330766199225,-15.307610720351493,96.71380593329026,-17.954864460301284,-2.3321616918797012,14.299582603014983,-11.294495601209274,20.122463249574864,-45.11323893076281,19.427267772221647
0.176,-38.26349761381253,224.385205346053,-17.08921471715142,124.60237627473828,-15.765483263050216,-10.986339544689736,-0.23868251912793303,-12.746620284236224,57.496881620841116,-35.87755427882384,5.227310973735261
0.184,-23.579535481782397,227.40319034216205,-5.297898289951343,121.45517266905065,-18.713106009637286,-0.5460226755451225,8.610602153921732,-0.16787604471142684,76.62979687048215,-33.91916306774401,-6.000262912463701
0.192,-9.10545004679241,210.30841727183474,-4.044483583621536,113.34308403145538,-22.049445203292727,3.6034180282784596,12.25179611689891,7.202137003758136,89.20578442830198,-20.96571941588148,-8.26988942019313
0.2,-13.379033869288937,187.2419561390011,-18.32524366980532,122.43175193638484,-20.733405550611632,-9.550297281162198,-4.0340915949255045,-1.869507098615437,106.7935217069521,10.93765931044919,-10.601003938934092
0.208,-20.9510660479591,153.52619295312735,-19.79801162786568,134.125547580053,-18.165570386810025,-12.381672411080446,-6.269818186080567,-2.0337856935556133,99.82261782971133,34.06383624701431,-7.044460475669177
0.216,-22.997859950755718,112.826640710577,-9.759927240613525,132.8681959018418,-16.126834794722775,-2.0852075794742477,8.56586175731278,10.550836742131859,79.96363216489279,40.76190118976624,1.218708436288292
0.224,-26.183434112697583,93.18656576293166,-11.76904918192807,127.90039197708997,-8.61445727514862,-5.82447694070802,0.40220586307886336,13.189798933378468,81.86341542634862,42.16155910776466,-8.94306464291804
0.232,-34.97872042389065,107.85753021063695,-19.834746403146898,128.65665516657077,2.2865500230378277,-18.394064317689327,-22.231520524191566,10.120123239152914,91.89406294996787,34.7202187215792,-31.761392746653573
0.24,-47.06386866055508,127.96693826808392,-19.96688412188312,122.01017114059457,6.443722569189988,-14.961432294241717,-16.367221336248345,13.040312339237383,97.21842763101303,21.884573071827187,-38.29327170241479
0.248,-48.86678498024403,120.75988900351147,-17.221466664777875,102.86375977557043,4.7356701277001205,-4.394700311394043,2.50095597922736,11.432074409294195,108.12449329827172,16.254091351893017,-34.0378106185705
0.256,-33.07334250487358,93.00427532638413,-12.854802697781059,87.73789040927643,3.616226377356115,-3.864820763165886,-0.14908172129153566,5.171970660945919,111.82738272178395,14.768853882489585,-35.37916467738862
0.264,-24.808611803551774,71.52471546340749,-6.198805918270672,76.19321712273202,4.179475484698688,-4.084920143635125,-4.55955121154394,4.42009825333183,98.97446864364149,12.290796871110519,-34.54445633566043
0.272,-42.247506682521184,65.33121766406778,-7.182837922013496,58.372147963072,8.549576174434575,0.8764847985032052,7.305233676360273,3.385282016678484,83.38936773844932,6.545661815180153,-29.44773611996457
0.28,-56.750789120961706,68.57032167281044,-13.105796064363243,45.243811751591906,13.781134439353105,2.170383108776656,14.341990676100982,-0.23399089932334288,67.09241013101247,-10.378055048943141,-24.72808863447282
0.288,-52.00041440119958,76.94368761261181,-12.896338693549572,37.041807634970674,11.30062566252658,-0.19340583694694521,10.55755628721592,-1.8139792085448656,58.41593069099849,-27.12406926720239,-15.597800721587047
0.296,-55.001029208585344,85.63400461753076,-13.760643560469916,23.133981462819463,6.580736897362908,-2.540381359720275,8.399862316957527,-7.061276367667037,70.788994657488,-21.805636265556956,-9.434409811088363
0.304,-63.25500459918978,86.3820852310197,-17.931094857386775,22.528384175283712,7.246663435259944,-3.6395881164556028,9.223603666707055,-9.940357163468043,71.56010628175136,-7.156679436764502,-11.645984260333794
0.312,-46.804507856549215,76.50625841298212,-11.676407849290017,40.67185678257595,4.074857935677895,1.7521810793670083,14.803512710085668,0.5765398701993919,35.4791020443548,-6.0352480560497686,-4.841846398062422
0.32,-24.575729527741622,67.22600353462111,-3.833549170202574,39.38397153223873,-3.389825929480949,7.047262650704028,19.744399898975885,5.3101968693606265,9.403600752223843,-8.744750495622078,6.586424580937497
0.328,-25.483213763273973,74.5699175061198,-11.935612042407119,14.506936276576514,-2.34430078762768,0.5061092117612576,10.202549875801877,-6.295365611987605,25.246948257673964,-7.068619397465398,-1.7250290695289758
0.336,-30.16591275413867,95.07832148107124,-20.575835702971645,4.861578412441919,1.731085015059735,-5.716865369512615,0.43733273707019626,-8.917609234358297,46.55808583477584,-15.207587879540386,-14.000745424202325
0.344,-26.407555397856672,101.2917775041771,-15.571152905691575,8.611581192555402,-1.6442485420692339,-0.16996507682244397,8.528310078235702,0.06609795934342019,52.56503552230584,-28.39543753324935,-5.261240410828588
0.352,-26.173792029205313,77.43115351341542,-12.25795230331626,-0.8881974152977243,-3.8783528101092264,2.651792929811879,13.954316716796844,0.14860501105245444,61.52156011256427,-25.810080344399775,4.819580923777055
0.36,-23.73857256077516,43.587099750611,-14.411141199172327,-10.641576140362318,-0.5048034658440352,-2.8109328535658507,3.257604144829956,2.050927709154596,77.38873564152512,-14.76950857601655,1.1189948186956713
0.368,-18.575023392273113,20.060285153835178,-10.07066508622977,-6.2063643797860335,0.4788334094536488,-4.893405390890397,-4.590953534208507,16.371143590684206,93.03431415370191,-10.250293934281158,2.0096971025034693
0.376,-16.265182310634465,-3.1598929400282523,-5.570089679063678,-8.710169246420959,-1.848603047759942,-4.6038170558750355,-5.782999691799365,22.87960731708247,99.78056471055186,2.3653267097739454,8.684815524302058
0.384,2.6388925992225736,-28.26604200605253,-7.660404187485535,-22.78472869799046,-5.700168990360101,-6.433640749959996,-11.075199816489464,18.73835701512967,78.94646228112431,29.580177982242283,6.292789938692146
0.392,29.382845854221436,-31.073323369277663,-5.162777616474145,-24.91305188843555,-10.917588862386395,-5.946521031253411,-15.556127981146902,18.891054905465055,38.193795331614425,43.35932855688312,2.670254581965491
0.4,25.338213506024278,-16.817508780786603,4.44387709092793,-20.013013553504994,-11.451113334351865,-4.013220542494853,-14.376945662099295,17.46882739954401,13.140049715501132,32.24125469505931,6.500559345189055
0.408,12.706968761449708,-24.876067882851824,12.453749604348156,-30.194863301860288,-6.787058381181658,-0.8185709576853741,-9.767508795564176,12.750066411318027,8.85326297739245,17.59562907040233,7.021600799328666
0.416,27.065499190684807,-55.97520410652289,17.37421943502782,-40.525405037892845,-3.3457857462423215,6.391616412918595,-2.517027688578299,17.32049484817142,9.374990653057798,6.461681277502113,1.2872503277889238
0.424,33.071394557887665,-76.50136488598358,17.77746348117689,-31.14983370311213,1.0027037289761316,8.889281936940701,0.3628032075830687,22.122307733597445,16.657509475635393,-7.0799726791612265,-1.055690429674884
0.432,15.935213311692694,-86.52254135016824,11.79376247478765,-21.807327489083566,6.347724597122654,3.5606099637961055,-2.4862985819492915,14.389903342050308,21.00307927391451,-12.033737533182647,3.524158395395317
0.44,18.75195314152274,-102.62874019221171,7.085651123809154,-24.899911783303835,4.110923046396459,1.447242050673147,-1.9352588966460722,5.736289165004179,2.620540409035655,-4.621687260431658,13.592680047888052
0.448,34.35414968787304,-112.14492776147789,7.772731902731394,-21.551722742139038,-1.5539991922034975,0.3885975806631003,-3.488497821844983,0.865112030916683,-21.964903946490523,-1.8799527183391076,24.102327510507337
0.456,26.695684159703752,-105.74865150373705,9.620506618046184,-14.172045945975997,-0.320640777442855,-5.320587271500311,-11.865945296986906,-7.341529640148201,-30.9207987593562,-6.6852675279600735,26.30252308673611
0.464,20.559672795219388,-100.15435947755792,14.962173962986741,-23.911897716457133,1.3844730202548239,-2.992879536556341,-9.993381326578966,-9.049129930804433,-35.74649630212269,-8.02901957847737,21.34577833491779
0.472,38.50773491612129,-99.37583369765224,23.653318083097147,-42.636709506293535,-2.660205458124878,7.99449711379264,1.5111844496368063,-0.2274177015729893,-43.23796730767085,-10.017473800946362,17.044905717011257
0.48,49.43775368477515,-89.45966250561982,23.2613630551745,-51.61007006928354,-3.8489034911213467,9.190150060118977,1.086659993461548,-0.33417530733434214,-48.41164039606238,-17.296125101190857,12.421810239121925
0.488,40.6475673078348,-72.4786648028526,14.175919395701795,-50.38920386132579,-0.4846161690658239,3.54129814107643,-4.008775377728538,-10.613427152398467,-61.57589927391051,-19.317330823247893,7.968406094315724
0.496,35.26181342755764,-62.44940616076072,12.98854335898432,-40.10064761782203,-1.5694938240265244,6.4228513083777035,3.7308965960488565,-10.859331377392818,-81.75242410534089,-15.854250292411042,12.89721112342263
