time,C3,C4,Cz,FC1,FC2,FC5,FC6,CP1,CP2,CP5,CP6
-0.2,18.98950357085547,-202.99012235868884,-7.322705607700785,-50.64560543726282,19.620684712443314,-11.50419633627633,-21.080461683053358,8.99416785549943,141.35501130361223,-48.75891522119088,14.171867581632535
-0.192,14.83524934536699,-207.08113086885137,-16.223218727741937,-65.35406983547783,19.399089467258715,-15.34265678436708,-24.918554022389173,9.272911726421725,154.728066007648,-31.36140564115669,12.515094589052092
-0.184,4.445783104890473,-179.0341433990973,-13.067158133733267,-51.44356138346802,16.64727949854203,-12.654701238366336,-21.160562617958217,17.668917540964436,191.81400843442776,-20.80957396522328,6.808012900931369
-0.176,14.455015604706231,-150.64360111478453,5.549593401625679,-15.472136568728091,6.494063526695908,-6.098262573549019,-17.989149171859413,37.53059225135377,237.85556327648507,-25.31096249827018,10.529641111566814
-0.168,12.298156795353066,-172.75624888788528,12.91717985490489,-3.2250031468129805,9.461726113492604,-3.852176560158191,-16.250178050559597,42.227449424389114,253.29781549795473,-33.08856041554904,11.908762132318857
-0.16,3.9816664532702575,-226.03910293502025,11.41108059639673,10.105685436674916,23.58269230173511,-5.483416325042056,-18.874436204143255,37.4346884901762,230.7738024167999,-21.061802042288893,-2.5206977963094155
-0.152,28.958130357498753,-263.34109234939183,23.049654545885815,45.34898119351403,21.0628288505769,0.970272373767032,-16.527150436645414,51.32652711450396,213.2905105858109,12.56965255800606,-11.176651886860759
-0.144,45.037693213802015,-277.9271527314413,23.726869089936137,56.64096770608726,10.148805779029837,4.839678033776607,-10.445798358525952,56.57687265359852,215.88130916101778,55.35393369166072,-5.363341992403669
-0.136,17.733584036277524,-260.672069628075,-3.266471098452695,37.02534695640499,10.239797356157096,-7.982110574923496,-16.873438579979297,29.959577467057116,201.5631826641078,102.07215381990189,-7.038522194532425
-0.128,20.27647285829902,-199.15268291814454,-7.6456921751577855,18.759668818381943,-2.0204374186519245,-6.061218742806354,-12.318810691065353,24.676328195393804,155.35386777837016,137.84424292011428,-8.41803568075457
-0.12,67.95350238762829,-130.41998266898048,27.326215593928072,-1.204020168761244,-35.42652616097323,25.21856838029939,23.66708223780127,57.544034489572105,104.46982861310784,147.4782443999382,15.379715501973273
-0.112,63.09170461238426,-87.93867621734815,40.77444735958468,-17.8362557144713,-46.81102203733344,34.53077829115327,39.12996805079431,58.02293197575606,61.47872226031187,135.0921613191978,38.544071987259926
-0.104,12.200603179868166,-56.91531854420734,21.729417651644805,-10.862777504225562,-21.41004492048567,10.24452500988316,11.515369926995538,15.92473814466431,5.426541919933338,88.2374744772728,24.52815319389118
-0.096,14.748953508989906,-37.051601375788216,22.308807809834793,2.532173194849337,2.787770475543277,6.287524854555248,0.5641900546245532,-1.9792287092298444,-72.25418309378509,-0.18422803205871877,-2.1664550313240944
-0.088,40.36565571858804,-34.38451630053795,34.48650817532689,5.963364995728382,10.748027386756021,20.164494911554634,15.557663255166446,0.9549957527833505,-139.11524505180532,-69.07940530056368,-7.74783927977055
-0.08,14.748100116734356,-4.428487897741582,21.210971971555317,4.148568396953753,16.92022302803177,13.299237240612442,13.533241257240915,-19.378211688272646,-170.6987485050937,-72.50517661350102,-10.613635061999554
-0.072,-9.376020721765189,80.00143497261412,6.259912215869762,-12.084417360027908,16.17940225635105,8.318083475554282,12.35597123407073,-37.390928751210815,-189.96597681602438,-59.603987269408776,-25.879043787082075
-0.064,2.618998417117588,173.1285766635312,5.263820755650987,-30.599733534983034,2.9167610428132247,18.89434796874855,28.267609776044132,-31.48830733181334,-212.6623479213831,-68.04980004271867,-27.37797968817947
-0.056,-8.35736297896793,233.58478838788028,-8.953329341931752,-18.19163161381253,-7.033436578763365,9.701936431103194,23.504590568439816,-36.56518392431226,-220.7673392790585,-72.26978534337773,-4.761950333980512
-0.048,-38.890031970623994,265.1598028910225,-26.228024074528165,4.453111872911221,-9.634947316580167,-10.417397323681646,4.835107402644306,-52.829293702582426,-212.77183556382334,-70.85429787360724,18.478403797839217
-0.04,-47.28879052100688,278.3566223703267,-22.009028929974367,-1.1533904480036075,-12.405048726612984,-9.503357760440919,7.086980788057855,-52.27274304922564,-194.14813569082173,-80.46153311345128,26.260535904604293
-0.032,-57.69471567642402,287.1160063515055,-17.51570030714406,-15.816838506192484,-9.991785791219854,-4.857822297597736,12.323488513204103,-47.83443374559602,-158.89711336867006,-83.59004148604849,16.277464322453152
-0.024,-74.95682529016156,307.2079860371456,-26.98153014677093,-8.701065609836697,-4.1432563056591345,-10.860223086345531,4.614792723324051,-50.128052179833645,-137.89341423869627,-64.54113566984009,-3.1191800355333177
-0.016,-66.17266480388132,322.78722053436644,-35.500651675979846,18.102618086860677,-7.97172868901805,-15.706642656737314,-3.3706344851606356,-45.47129060713552,-156.39521513909853,-21.089009261183538,-14.052576323991454
-0.008,-47.28332446644068,300.16830367894954,-38.184348819057526,47.37004376202177,-15.789249104312539,-18.296067981568427,-10.028203328211509,-38.48472833308399,-164.48632083849282,49.0095189255709,-22.043405935943394
0.0,-46.71903685235895,243.26518830864228,-33.116619983971425,52.13997641167577,-13.571668745816497,-13.849196729147375,-7.118678158856836,-34.29233105983779,-137.2323544128347,114.96223767777559,-43.12240799485741
0.008,-64.04676411986253,201.52674144552455,-25.584345487180556,32.02680762376964,-3.9453362401088117,-5.31245607458091,3.924985029555852,-28.164129877922097,-132.2755469270584,134.48348174544256,-56.54653962283793
0.016,-88.08193301963342,211.2610922574047,-33.37285441622797,31.85793256249682,3.9043467087952033,-13.708459109467407,-3.8899968537738836,-29.433895926987002,-165.34526047407888,113.88426625965,-46.058512913932915
0.024,-88.0914833516615,250.19243092302875,-42.23679736049838,55.927322870350864,4.228042437293941,-22.444823819081744,-13.996197906935105,-34.73956155479742,-183.94591699774932,84.36646258111061,-39.58379212684108
0.032,-66.47788844195725,277.79310556996654,-30.799157698806543,57.58033065758848,-0.9225072683538151,-7.508144294089742,4.2807382054655205,-31.57207711699933,-174.60250223181353,58.38672493251601,-47.53679172175963
0.04,-74.09838039862444,290.83312418303734,-23.022409896725794,44.41477793363291,-0.1609535855091336,1.8812807827043463,19.67603294368766,-36.474188448880525,-170.03766473943608,34.66366378422762,-46.68478633024442
0.048,-94.27788009873524,300.71207599323947,-30.58901495981575,49.39148909069145,4.8148970283339185,-4.5776342788449895,17.68328517921642,-53.120094628862475,-187.70800280427244,10.158425918449474,-35.70352313315479
0.056,-78.02241161760861,307.92696710756957,-29.583048084899797,48.60091667078716,0.9353255390604767,1.2656864974581061,27.468646165514762,-55.50261688318115,-220.02055600415076,-10.19369385385956,-26.72986552460985
0.064,-69.03070286041581,325.8604206109645,-26.510646587495447,41.60153345129205,-2.7332626770304778,5.138661614229885,31.742411354273,-49.29204736365026,-250.1987563271233,-21.816908331823104,-20.34743249809154
0.072,-101.24098381302525,362.9144563035631,-39.109072098116805,65.906171764951,7.072321999137834,-9.85052816134797,14.400335697368726,-55.97870707427412,-263.92328746802366,-34.53128233555261,-23.2985190310683
0.08,-119.16999552997142,388.6929081000158,-49.80865193090489,74.02870431310964,14.118034985303964,-12.02994325405114,16.53945947375788,-65.33660677436126,-252.55058902309847,-45.64915365189628,-34.55604499690289
0.088,-103.8142547020644,382.78200793946047,-45.68828883342998,18.080259858514868,5.8880751655191155,2.793086200715721,38.347844417599894,-66.33738611493659,-227.8831766960074,-44.90303504148685,-33.4118964927819
0.096,-90.8286989092228,375.14221438838376,-36.51860650217302,-7.9851059540184695,-1.6027445068795843,3.9514066914699635,36.06531609199358,-62.783952560325865,-232.05567573508006,-52.478499936869014,-18.86883467931168
0.104,-86.73765888952175,391.2225745250233,-30.983189003329898,50.980405222338,-0.40078136313231955,-5.539722827862523,18.761420468049558,-58.51692005702782,-273.0306242073245,-70.00633212241439,-11.306276186745407
0.112,-86.45765114430252,412.35120481367574,-35.32301429326691,84.21612581575756,-2.179707690029762,-10.404098091740126,13.489492004276135,-64.21541002155548,-291.759482960634,-59.39455353260843,-12.884466998667875
0.12,-88.3552255321508,413.0809292228804,-43.32475722506432,45.86965850891555,-7.309189636957918,-14.427411387507139,9.818804534764334,-77.23536098997792,-261.40663458608105,-36.31889029562487,-14.78132175243584
0.128,-82.84974284300712,391.2651198168672,-39.082201108863316,26.76605152747894,-5.4200575777202005,-14.33490247575651,5.725241958194519,-73.51729536077556,-221.82807959287592,-47.854445911880845,-18.570143121616212
0.136,-74.85819294617167,358.79673228196435,-26.59021731459915,40.71945103805357,-1.733557544867407,-3.5746136268893522,16.956071345750093,-52.22242814059339,-194.3712148399523,-65.23110810098355,-19.579840597455668
0.144,-67.3604005940878,332.00223316109305,-19.92148108764665,29.404578259144596,-8.295884817445062,7.421342416307272,32.98431850903838,-35.19665384040968,-175.827596793705,-49.3352743343588,-8.141172989020369
0.152,-53.6668728913208,323.8177770700758,-21.5800753604488,6.152337213432887,-17.777317901710312,6.322838264483191,29.867783865524803,-29.622876413128864,-169.53206939413022,-25.562416238534155,0.9436525898830511
0.16,-43.887449917507205,329.07051786205164,-25.4422325439557,2.1375956411700643,-19.680950023288542,-0.9136020331084802,14.918035957313679,-29.57993008089456,-161.2807573139591,-6.838813842659696,-9.422933373132542
0.168,-37.38819059971674,325.87735076015,-18.397405294510556,11.69008191138201,-23.359890193098266,0.8443932021692213,13.40241802561031,-24.81451402674351,-141.9950488826218,14.262159579586973,-16.522551278019684
0.176,-30.875608969663,301.761273411011,-6.806782394748251,27.02916398092199,-27.44678329417251,5.322468143219444,18.236945503409586,-16.763135532398547,-128.36150546431386,11.835856638109266,-3.8920496949171013
0.184,-52.115109831844194,271.3910200842138,-19.169163193495628,21.069861711024735,-10.650349743313713,-5.8587891802617875,5.824009498927615,-27.52322438447207,-120.70345490837386,-21.09534230146795,-6.239331674547763
0.192,-82.30926378809569,261.258742687707,-39.07472309653778,-7.64032509075151,14.117510292747374,-18.023006969371977,-8.232878376892483,-49.18024143075825,-117.47230654288849,-53.52185069510168,-33.14351001559206
0.2,-61.56804806986969,280.23559751943924,-25.633521105726274,6.345548603153436,10.518616551508465,-8.786760270807278,-0.3737110267102374,-45.22072300454102,-133.16183025289592,-73.27951986012252,-38.5938960888499
0.208,-22.9308933273096,305.73134694906025,-6.764153402848124,58.62241277836139,-8.264313075201155,1.5080195929323024,9.482483491321583,-32.09194689909177,-150.69641358889393,-73.50450729917692,-22.616934947365387
0.216,-28.05153515977973,304.3276038328206,-22.021523963147303,62.625018065421884,-7.546509050588578,-5.460012038302479,4.943639384580644,-47.768441319930545,-150.31607889623777,-47.005912427045125,-28.929402992413216
0.224,-39.03456087758849,276.1969066520707,-36.76484795124896,32.03181890761075,-0.43112474563531183,-9.753559232228133,4.039813536915601,-66.41001816200122,-157.23836052470293,-26.548705497983864,-38.684209841693345
0.232,-24.11430249760719,258.01447277652767,-24.46702266311671,35.48327455268908,-8.930250547465281,-4.088856556627856,10.81908669981856,-56.73584676719765,-179.73227562453687,-36.34372822240414,-13.436585888658103
0.24,-18.36360007019335,267.4443955442223,-14.864223366928226,44.95209262100783,-19.968503738633622,-1.7997323716660085,13.844151723649992,-40.906646495387925,-191.75838332907003,-46.11431943879998,16.69248444147301
0.248,-22.782790231057422,287.1143010015059,-16.477994126979006,32.36274123762016,-23.932040635309132,0.3001916186168138,18.052125178007305,-35.30769205088736,-186.38714532139406,-38.15552121197092,19.392158201536702
0.256,-25.2983670229857,308.1158101347974,-16.491793198275804,36.07370459139138,-25.923882085388026,2.3225725606248875,21.36204088254833,-35.23401069604513,-164.66406088700887,-34.975298508387404,13.345638863935712
0.264,-43.62133025732139,329.07490407905027,-25.390594847168657,48.095901412016666,-21.69411190805017,-9.185258383167529,7.631401265739019,-46.127073810804504,-134.2013696834442,-44.30260554389717,9.69618403790595
0.272,-52.65191230277576,329.5659335688506,-37.92758399356952,35.123639097810916,-14.04860182768583,-23.888205000298683,-14.141609996557158,-57.24419052751981,-124.16205487442679,-49.41409366747848,-0.1329264036457815
0.28,-21.3349901969256,304.7532909490397,-26.42253770525822,23.755918883713765,-17.347849648750632,-17.251781068923577,-14.424644919348058,-44.77887943880145,-129.3936825669202,-41.858146897101854,-9.214188300330246
0.288,5.99421865144089,285.8687250417493,-0.9265403437886874,28.84429832841164,-27.46194514730784,5.2506265328231585,10.872199618289379,-21.060655931254935,-120.43018513735106,-32.94065665771768,-7.0976141560425585
0.296,-7.388111079526017,289.9975791324327,1.8633584272935984,20.00171533149637,-28.997823515290346,14.930275284290829,30.152535496013684,-16.7848674986218,-114.71354916038568,-37.50619614642403,3.0209939700312414
0.304,-31.240778048656527,300.447054724244,-15.805080447836861,-1.961111974517488,-23.178011546374336,3.8330984544543174,21.890324168862055,-30.829407472754458,-122.55295736899325,-49.489448429295464,10.497594019138678
0.312,-36.789912120208875,301.3733947486311,-17.672976818172074,-13.591877457404735,-20.673018328773207,-2.0552811100322845,12.424187297833413,-36.49281766777507,-109.73856366740613,-56.899685535698715,8.28262685122633
0.32,-28.09586701029787,293.7330070375226,-0.03818559365971887,-16.51457406564165,-23.04877946338275,10.72155395351523,25.69404686133553,-23.810814931503614,-84.42193682443622,-68.69079297283209,6.2470205705200526
0.328,-21.344702689947805,286.12189001123687,2.222606745311325,-17.569623474624933,-23.448652395885503,14.60148291270067,30.696894223096386,-14.066130770087769,-81.17556067633598,-85.44593322223474,13.350501639798404
0.336,-22.49812744361331,276.4461901955143,-11.52149593726951,-21.744325353230316,-19.409701031859143,0.30311227708137134,10.448814278362399,-17.668665792487236,-82.98302164902856,-87.08660867033515,15.256820056864598
0.344,-17.737078412443438,248.99833142065702,-6.842437190745961,-37.24973248309491,-16.74256293658959,-0.7456123550790632,3.4450710928451285,-13.244525387536857,-73.32468177150612,-76.42913144686582,7.211172308814028
0.352,-10.803830217258138,210.06322690013462,5.514328221195846,-51.821599583773,-16.153118586237362,9.797563422682876,14.641658246720697,-0.7574592410976543,-62.40936196128831,-70.65531685407511,6.206437759253081
0.36,-18.904304074157782,187.7969878630225,-4.234252653958414,-47.00986575168151,-12.525981070550985,3.702642113272038,9.658313026797735,-4.612486692317702,-37.88899281747495,-64.67722934032676,8.05316542571844
0.368,-20.349365251421673,178.3178181767729,-11.10687217079153,-29.708127115058215,-9.676673554923163,-3.091613562434638,0.799102726575722,-13.111313823152901,-5.693854338403761,-56.405578719925934,-1.0323725100524264
0.376,-4.81638081721513,155.4798919783905,1.5247565594664787,-17.332960495580735,-10.423037244534347,4.248288019795004,6.324769757492989,-8.403530463500942,-2.8089906172671615,-54.52103595387646,-6.851482682832367
0.384,-10.979975794951814,121.52599937939503,-2.391281994495542,-22.41517959053607,-5.986471928978523,-0.4953751391395706,0.9593321458800778,-10.896787896021252,-10.254748002528325,-47.87907918666452,-2.025958563362753
0.392,-30.192227910178715,85.90531389903795,-20.839374475155793,-37.59548741393634,2.107629434981055,-12.14033822981187,-10.356419189828767,-17.342429189907293,14.615761322498921,-29.2949546474832,-2.958492695781987
0.4,-14.605517222982717,39.99165118352214,-12.173440552666369,-23.474190838754787,1.96021023018528,-2.0612553097016404,0.1037928670779654,2.7126072911654555,48.185577467667635,-15.322224478333897,-7.378089569224267
0.408,11.942672712493364,-13.626007874502653,9.66190754422188,21.06006506040158,-0.526402744685851,9.42169861339051,8.155071949910724,27.195072806665703,60.699392331898544,-6.456776245811795,-6.312909897796777
0.416,7.344854251890264,-59.28902219999745,5.734618520542865,29.134298788794087,7.1046512775408965,-0.6286612145827476,-7.5399425004880145,18.74685207890631,68.63393829143185,9.522328544619278,-13.100916040929514
0.424,-8.404913694075345,-93.32744980870324,-11.798097290404659,-1.731900954073974,17.77707907781877,-11.790557794178548,-19.482524312575528,-0.22454748301647534,75.52881824508523,22.968497615849934,-23.592085122716167
0.432,-16.992700361884307,-126.01268982903314,-14.506585866570893,7.235423787739623,20.805541783593327,-12.326858217193768,-16.429835041817494,1.359610553783497,74.08338174478581,30.855888604233105,-14.773132548396287
0.44,-16.35077500700746,-175.72643369465723,-1.7399694542247406,40.5659587687115,18.892901267322774,-7.298918205015804,-10.276952126370016,16.71498090327549,80.19569081196799,52.42323887440504,-1.6679805887129573
0.448,10.930328999459382,-242.60147629309714,14.493034672625209,24.36476637187454,16.415924834921626,5.394273553339976,-1.1500314950627148,34.96603566876441,88.17592255753979,84.098774771581,-9.455343398959842
0.456,38.31549577880588,-289.5397731699028,21.190910336041224,5.1722652596782845,15.649557231573745,11.532703717040793,0.4717213409646697,43.8289954530445,74.86270082758881,102.56476057998971,-17.534101775883077
0.464,18.402822911079465,-299.94842157912234,11.8111096218609,34.3803764500132,20.327693345096723,-3.045424294175571,-14.73640293156452,27.12216170573141,62.29785166286198,109.09264123258423,-8.874585230969606
0.472,-7.836279867014513,-311.74324022302426,-1.2556909061705919,37.32041702170276,26.808059466249155,-15.441910263768214,-25.133269026455643,5.667236037876841,79.39575574989884,114.9122211655468,-6.936372122685235
0.48,12.865406288112183,-343.2067598981604,-0.6063498819319925,0.4272365513047227,27.44889364336619,-7.433385618605244,-17.90792206769581,14.96787068217379,102.80910355411727,113.22812279194561,-16.27869414510607
0.488,29.278468135054794,-366.62165269543516,11.413944566072464,4.512087089223633,26.7245143825368,4.505157019892733,-5.145035305008373,36.920518337706476,103.77035306913598,98.38142674216577,-11.673773190545118
0.496,1.3782958760921842,-374.75902233057025,15.695548281715332,17.200958020803206,32.43398560515209,7.324210456103523,5.875208848322543,32.83412548379298,86.67707353895119,76.983037046717,4.849814717409065
