time,C3,C4,Cz,FC1,FC2,FC5,FC6,CP1,CP2,CP5,CP6
-0.2,-34.36583686170307,62.01652087449413,-8.446356751748691,-40.36112127309407,21.80696539742083,0.8623483929295521,4.890695026329223,-5.692654014964371,-120.34868915508655,-74.9989175470471,-8.157088903647868
-0.192,-41.632466774072796,56.90201642057082,-11.160937759299246,-44.45738594477061,22.199430964986135,-3.8987396953583215,-0.33745497396894236,-13.274939333027342,-104.7822433147688,-72.55547043483654,-5.874948793296057
-0.184,-38.56209406660193,54.50226054986884,-9.961145500831408,-43.69705465815391,23.087928595478722,-1.9161091299810706,1.6666874275509231,-13.288285549114038,-97.34233333841419,-74.73046873209617,-10.68480123559016
-0.176,-32.984490104444255,50.89154434936947,-7.012321176774227,-45.68971067212289,23.3853176365058,3.860297483026112,7.848314820852926,-4.456665298244265,-83.16985547094639,-72.48689555496192,-17.809488812144473
-0.168,-34.29343674746925,45.72528496547045,-5.9404597875299645,-46.91800829333177,23.2327421175073,3.335060058932523,5.1332338489489535,2.120308740161263,-57.786837502221026,-62.63062176560657,-21.863397844207178
-0.16,-23.498006781764712,36.87249571727004,-2.5285618134020833,-41.68057389134477,20.424679096677806,1.9303796422889032,-0.43795406245497603,5.881639352298587,-39.580539445608274,-58.40857295421544,-22.61594299553251
-0.152,-12.716741796688282,28.4243749030618,0.24447453773856298,-26.100662397734684,17.02901725950776,3.1079794475309823,0.749570881895167,8.16308657706894,-32.176198469731595,-61.66476793394729,-16.777912025990354
-0.144,-21.15031075627776,24.44622561430697,-2.024781204625028,-13.278100492716964,14.48594102032887,2.1601224404473975,4.440103784364636,5.1784183989518455,-21.027671488181515,-58.79981574645533,-4.2560074373989005
-0.136,-18.991637751380882,21.80857772933332,-0.4300645114690284,-11.876572933997547,9.779481313348779,1.8645979961430892,4.60965162737457,2.0487655706314656,-5.766543003085687,-48.940976579598065,0.1945147796473673
-0.128,5.362856925300109,21.439361419803777,8.382961066497412,-5.166998874475089,3.901304014284997,6.178995542675175,4.499332457147478,5.936378873212944,2.150192011224753,-42.32728678497578,-7.381252832153806
-0.12,14.42937572435026,24.31905830428037,10.22605518490935,6.4286823351753934,-0.011744675679489608,8.726902125796483,7.585449920931562,8.791091386632313,4.659168335082907,-36.15620845770801,-6.91718132141641
-0.112,3.250373260143949,21.66577495360521,0.5175516445823397,3.7771542923791115,-2.0513013279521553,4.222821576067034,7.488944857116776,2.7102767875757534,9.611007169720022,-23.808705217506496,4.169292952455378
-0.104,0.6641875711080797,12.202073416247194,-5.507975714103349,3.7532458610236796,-1.888687143863318,-1.6503272477579822,0.680815166306776,-2.891450895933778,9.825577762539334,-12.23131058775638,6.151077560846853
-0.096,7.394195086581829,5.492951826859703,0.2737176768371318,23.763074458424068,-2.5117367426251906,-1.1075510749325355,-1.4143010336585229,0.4076829611734917,0.47895658225693666,-5.0729278089862,3.8770696998782275
-0.088,12.28993553874208,0.7427143983393024,9.126590989529852,34.11467976256279,-8.927692683756119,4.000337707032975,5.384607550395621,5.6829442487000525,0.15312718143588874,5.420401506085146,12.879305139135903
-0.08,13.419988048657935,-6.020085187696088,11.442292907304163,29.525691322792223,-13.802949172294241,3.4084895872918612,4.363494436492154,5.867725951628372,19.204550877329922,17.69961501592456,18.619011236932206
-0.072,6.034989688386681,-10.813626126376148,4.495960014294035,44.40711627151682,-7.858310751456446,-6.422635551613324,-10.35902729493638,1.4391352570983607,36.51120721588331,22.55361072224316,8.831876099755927
-0.064,1.7468618538467062,-19.503800030659296,-4.694364023397784,61.10489790805248,-0.7503486476153883,-13.916666297638978,-19.964555836251392,-6.196377651169981,40.336911658277536,24.083193858454866,-1.5453521422096452
-0.056,17.495242386705847,-38.58262300410814,-2.794095830267379,42.78080100869249,-3.730110694672867,-9.28725045564951,-15.258611202534007,-10.244616786730445,46.23575448842154,36.40177450896332,-7.446441152909704
-0.048,34.56776681264755,-52.68372751710955,7.928585991432866,21.707147278583413,-10.92125623546455,-0.4572777856464073,-8.369107457647601,-1.411966466155297,56.135046056639254,64.4449393370128,-13.608974726169189
-0.04,34.19986765278234,-53.74512909021782,9.820813177478245,26.004819816828412,-16.9579089520274,1.802663690271894,-5.336985712436411,12.24694089966105,57.87825175564671,93.60850252513559,-7.298721483966348
-0.032,30.300290642030777,-56.004438635551764,1.7914075040634474,22.315802670650125,-23.300174223731208,-0.6213824982258659,-2.55526779117942,11.339694153947043,60.39781733901009,103.7602605466844,12.13094966221708
-0.024,25.940077316784887,-58.96067295137078,-2.535980263387312,3.773094347072734,-24.93622272171172,-3.564450497390442,-3.0091786768566355,-3.2691597385606226,71.41352069090689,98.15247330688774,19.13958433857299
-0.016,16.179836811752924,-54.39317631531554,-2.382980766329426,-0.4418263238126176,-20.548113330487514,-5.733048403707751,-6.072448452674385,-10.695401672087169,69.77297015845797,92.89913641290495,12.866538586985634
-0.008,16.265997750235368,-55.360912373936,-1.602416540127229,1.6084626880858435,-19.646661112085454,-2.3093538046870683,-0.043943291605462655,-4.575663590476925,47.04017911243561,83.25355603177373,19.31948241534232
0.0,18.65317857034562,-61.38304421054029,2.7720309486247543,-5.396654266284666,-21.48958900062394,5.423796752155274,13.817933980497376,-1.8169081622772518,30.17667279277537,62.53548233362688,34.05880923486273
0.008,1.1177624742603112,-50.134735426929346,5.608461332440039,-8.485654297518359,-16.571888789328508,6.230356000454895,17.19384746436195,-10.901204177225383,31.66127830773874,45.09690859772283,32.074098281471336
0.016,-10.207815013706135,-31.61782618578807,1.122024205888552,-9.392042826724463,-9.702884494029552,-0.417593433721004,6.708836770497134,-17.441630503306328,31.028604434085025,35.337133043133456,19.786793393004583
0.024,6.307972088527197,-32.789652873693825,-1.0348197531538557,-17.16648855631341,-9.427112008494076,-2.672521586480677,-0.6856375213264282,-13.77256315382189,22.946969219169084,26.66891502744896,15.161926420432243
0.032,15.12435898742039,-44.599742137369475,4.189006010843091,-21.63897832595981,-10.463388692735013,0.896662684265073,1.683904014128614,-12.463402044902011,27.94383651920714,30.735437332181615,11.00115031971144
0.04,6.384390600069991,-52.724737447432894,7.2495036912776,-27.608248027062643,-8.571872736185247,2.54414499681938,3.6912917801482963,-15.257462054919698,44.91111300214308,44.4996013848564,3.115908022349952
0.048,10.604727393440168,-63.32514814712982,4.939483158610369,-42.96004065683695,-7.9348596528703075,0.9468023758646053,0.17440105015330745,-8.743589217453673,47.136368951946544,36.17448084557713,7.884689033430804
0.056,18.342364255815134,-66.43174444287702,2.0784872417351785,-41.5127105812394,-10.621349742383453,-2.4796156502327573,-4.250000692417686,1.3704114753508663,38.14636764829895,13.497611615067989,27.730599767797056
0.064,14.813138583958526,-50.61515407456443,2.1929669778255523,-17.9649524336834,-18.338257445802537,-5.293373525720411,-4.835213197944167,0.5529711844916045,56.86987690466647,16.76346670326161,43.09893054739821
0.072,23.90227659541893,-39.8546000474904,10.064113878866724,-10.537211297114014,-28.788605811243315,-0.3889896580997224,1.2139904540839994,-2.0603121728404195,104.95860517419429,32.45193479696163,42.45681788458619
0.08,36.657839960719755,-51.912691434959555,21.912618809151088,-18.664808075322362,-29.759950073241782,9.410437644409804,10.608665651596052,1.9796633852258219,128.02396320042257,26.33432963495553,33.57930905392227
0.088,22.89124313371829,-71.01563831637233,23.550695722969703,-3.8003074265617323,-20.42316460154544,9.927792979476935,12.559897065278387,1.6349428508404757,103.37061831938041,23.142732382316964,29.949690582732142
0.096,13.061245365048164,-90.71975826690695,16.247963112622912,23.106506172964213,-16.453278973826734,2.5199997535883463,4.785393535024797,0.4120729351743325,80.10635225262743,48.40503707222771,31.505106966285247
0.104,38.23894770918905,-118.05097268268823,14.69490524656679,23.233668686663407,-21.3463450160656,1.854881650498604,-1.3791483504115585,11.405521039246404,90.92640802705225,79.60128018153215,25.777476249301124
0.112,62.43620699826897,-139.83615116591312,16.65659241604879,5.08201977878179,-27.119968424611056,5.926712015284256,-1.471844353399911,20.134791653629925,100.49342565102448,115.8953507691258,14.633444068577933
0.12,58.32425364265752,-140.46599196254536,10.945414556626151,-4.7879698109010285,-32.65440998518209,3.1968616218662618,-3.252526187475562,11.388695109245424,80.93886446076516,173.3461098675137,10.030089275343528
0.128,46.269229133187785,-130.63731672243284,2.616391433149662,-11.341671180842146,-33.646772887358466,-2.4689633405136506,-8.043556827956483,-0.7298643625845329,52.065677183890536,212.09030470561152,5.3822315532824465
0.136,39.38518850431253,-125.47220897678312,1.684118747667589,-21.42034684310844,-24.85008907502465,-1.868135048662549,-7.38210596515347,-7.225801734686694,22.928021032417586,191.3672613572259,-4.280930714485178
0.144,32.221919978594464,-119.6206220473646,5.668509903111109,-18.81567972952159,-15.541191062981387,2.0863741427728173,-0.10162897275809135,-15.177790764781633,-13.345925361853942,143.19753745576682,-3.9252879912273153
0.152,20.28730882746166,-104.42925100009279,6.6308477279002584,5.188561263330876,-9.73986190003242,1.127474616331342,1.9089497735135248,-21.922365581829354,-36.18118253079533,108.18978850302872,1.7775229942060264
0.16,2.9516320556763156,-87.55200163954078,1.4247704649802093,33.941682693860876,2.7991555856589776,-5.543737406199093,-6.568338853273238,-26.824554957106,-39.509627754349935,79.66659654483128,-9.920388709152407
0.168,-7.9299235627220845,-71.12658679002057,-7.598015645887968,49.52535949430004,16.852964691406203,-9.531890232798581,-10.388045713614334,-38.26454197678064,-62.08550209504162,49.68314681899857,-28.057040359244947
0.176,-2.69780122340611,-36.834138512533634,-16.372807667713783,52.31298147198114,15.630605387861323,-5.628366019467742,0.6413287381770854,-47.27859463138617,-107.40225064617132,35.379095957937245,-27.24342410283053
0.184,3.9301893922906235,14.08070454316744,-21.752816087489272,53.354304332583204,3.5775314541436036,-0.7724048752725206,12.274210559523848,-41.60734069235239,-132.752950909126,40.25685432238853,-13.507964006752047
0.192,-3.5964898972225847,50.08602484435846,-22.456724120463818,63.26999009770262,-2.974066245024158,-1.390230496614744,14.332747520896667,-34.9949171383027,-139.69775807168722,37.90585522685602,1.0916964609311195
0.2,-20.85390366961925,67.41382050197721,-23.01622797168705,82.62947134167948,-2.2487221031300506,-5.602876434306029,13.24579351253528,-39.80899089891821,-150.77958718419865,16.528929548476572,17.255730656516725
0.208,-36.238632587569825,92.2212744386239,-29.958762678103508,94.71115453932065,-0.3698386765190135,-12.997487030348285,6.364710612316642,-44.12083731316648,-137.4590074660173,0.15567211255246677,22.594429415393655
0.216,-42.66521715258729,118.77438557148801,-37.665819838705076,89.70135333630787,2.831031503133018,-20.693862338643417,-7.75788637151929,-39.06085228887973,-86.0442832363823,-0.9779808350073986,5.750074619692097
0.224,-45.71624094189301,119.80498870076306,-34.38124758171505,87.87000150160543,8.460839465479298,-18.880955176428397,-10.085817260475977,-30.36128597653596,-43.309547528563385,-1.8643401341322459,-14.514792332332716
0.232,-51.3356911474824,96.24627937336757,-24.355052011736763,102.03383278853832,11.572270649011477,-9.715639988115466,2.428933921161489,-21.49609908637154,-33.2279026169065,6.047851772190406,-18.497355487531145
0.24,-44.817917179397405,64.58414406005247,-20.979238050098925,110.90691731569797,8.581301896927455,-7.475119765347541,4.84718204914682,-13.834418525438682,-37.735587872833264,33.1783439062325,-13.479818446181289
0.248,-24.18648894885696,38.16222451675371,-23.597700546509614,106.39696687246402,4.808938836151088,-13.72577351336702,-8.191108715703171,-11.242549753381178,-51.97784947235357,50.9748169268578,-9.900982848885358
0.256,-19.739808444177395,33.19254109463921,-23.882993325906412,108.06897330375598,5.42976497391794,-19.246559460781338,-18.31397351892631,-11.61199157245087,-69.24655475498267,47.243557323371135,-6.738959903359075
0.264,-34.21653975701154,48.19876487902425,-22.689949860281338,114.11800035953316,7.231562433386168,-20.81882095594233,-19.942738075924176,-8.837883216746482,-69.8941581960054,47.28602778644659,-6.445615129062016
0.272,-37.357938818516615,58.20019692930219,-22.56387983334366,107.96293222428115,8.09938020702785,-18.25443745652658,-16.89136917135765,-3.870023890019098,-61.781902930720236,48.17267715853789,-12.141301550340552
0.28,-32.26883892406531,51.295574012717296,-19.092642368743828,95.32221585379708,11.070828757304618,-11.883861791748858,-8.898220233968342,-2.5865977295740197,-62.08385955092024,30.455183039886606,-16.545187034327853
0.288,-38.14756679623432,34.67968031316683,-13.47323716183274,78.4806906354238,15.452813487628537,-6.317346195224199,-0.2427644689607381,-6.991142387868516,-63.52130877238219,13.998453390303638,-16.280810849747883
0.296,-43.464790910433024,13.356031352631733,-16.076167568326383,49.39425010877032,19.605289502256472,-5.055736737521258,2.831362285655975,-12.809548774184629,-66.12220796071996,16.074154755379002,-19.219962970335562
0.304,-42.34932574401793,-3.2786972750012704,-25.70991200812504,29.806628041138598,25.659069171077405,-7.68283190428643,-0.19625730363989222,-13.595932452086588,-80.4594645569041,12.672318405313499,-23.77298716670878
0.312,-47.640454889288215,-0.8815433754264738,-27.57110314836842,37.910170943197265,29.738877860785124,-11.475423377121137,-5.29100440051342,-10.329033253076721,-90.74366868451148,-7.386473305167496,-18.55636849985691
0.32,-51.626996374124374,17.18787177872909,-20.7961100170035,40.436523603819104,25.264998353667277,-11.08391939447914,-4.57488727893026,-11.514332804861818,-80.9852353453139,-21.30597289026093,-8.247749985238244
0.328,-44.897723953862766,34.492846707408674,-18.803257651051442,18.344164350011145,18.702642269357348,-6.934532463148613,1.4749035207791654,-16.62179714985903,-71.57666285358566,-21.393769380842983,-7.221990255601911
0.336,-39.781360997476455,43.08857336759192,-19.45512040345099,6.285963305688808,18.126504616467088,-6.24621914939917,0.7013448874297497,-15.643351569690601,-80.21392364553621,-20.591279968110936,-11.879716673360363
0.344,-35.82057471036861,42.852094179140046,-10.840117387164995,13.09648080474975,16.353293403586076,-7.218820971051969,-5.042365633504301,-11.246731788123155,-89.7332166523061,-19.24710383189433,-10.089669268689304
0.352,-25.727393405903705,38.75237367614569,-1.0074949070279509,10.34449727541039,9.36439813207206,-4.069229706895888,-2.6377471102358054,-15.761067212185017,-83.40208120805897,-15.25520394578998,-4.619234184802614
0.36,-23.717413596098293,40.003499366293,-3.0645240825103213,4.4256198204891515,7.057604253613135,-1.6058448280760547,3.803947722951056,-24.4328791089622,-69.07826263841837,-17.746081788313518,-3.6408379038312724
0.368,-28.386591928393102,44.92438456745845,-6.942640867319784,12.838167082287262,8.823431344445273,-0.8693513697582145,7.1471959552398205,-21.624636076802613,-53.267464007144866,-24.28866661228466,-4.301574402258012
0.376,-19.340047364761162,44.511210123562385,-2.7104800570007543,19.82213974617471,4.018105506063569,2.5776649770309845,10.199377341472479,-10.216452972084356,-23.711807136387986,-25.373440835452868,-0.42636867909758225
0.384,-11.686666537648502,41.939149103163686,-3.078477041644859,20.67752355392279,-1.404234329516111,-0.528428022066692,4.231561101706071,-5.1485296837193415,27.44706131247589,-26.108383665263574,4.679109071941323
0.392,-21.074502711833915,38.265218056448276,-11.498770974008382,22.23984278687051,1.1922121330182749,-12.034647108490622,-12.461556957664333,-4.039670949992209,76.51510719941581,-25.328775466017984,3.4017423138285556
0.4,-13.250308505194221,21.226141881476096,-9.178728677780626,5.91309950264711,0.11569326750248433,-10.673092140327267,-14.527946405565327,6.096133453975031,85.39631887426106,-11.936381198010734,0.24414036113731727
0.408,19.391351471892143,-3.399482628164766,4.09495466435056,-23.752247205100364,-10.649569732467624,4.070650334329527,1.4129611219276326,18.443570498985963,53.696692461147926,3.1555140661041206,8.010711197590833
0.416,28.693578968195617,-11.917723655505025,8.033372817920663,-29.51209541893666,-16.587731444156685,7.753942040817073,7.738596467446858,16.570964005718825,26.512558861990794,6.519318493548671,21.128115684792938
0.424,12.99591593557594,-4.885522499327703,6.367612955015458,-22.696362162262012,-13.820196653187722,3.0792604758951643,3.12507969177483,8.646836978721742,32.566333065889445,8.968715226067163,19.659167328001132
0.432,14.59816510973281,0.322641193078846,14.522650691427188,-42.615357837553866,-12.819617901596477,6.043151539127185,1.5408971176978932,10.841441002695243,52.65395584043925,10.09248107564551,5.362321408436633
0.44,24.324271534654937,2.245966031638084,20.925093895095273,-73.31987385346918,-12.110365254699808,6.58100145733203,-4.661612012431604,13.938033734347407,64.33385373347703,-4.96347498542634,-2.8558134654714387
0.448,20.28971118741565,-1.9255414231273105,16.101858555880042,-81.46883184738138,-7.517741730375816,1.3266955951538515,-11.578441194041977,9.061853284027638,67.9309292585711,-23.824843324609148,-1.8440977225130533
0.456,26.7552557558439,-27.537417534256402,16.829554950193895,-77.5030880589723,-7.156535578706643,6.498583472354528,-2.0969043344496385,8.949180778296792,64.79050839376363,-26.35245879399562,2.8796103079453492
0.464,45.38765881110822,-69.26652059219603,25.15964146941485,-81.53635764508995,-11.386372290230506,16.233860696629684,10.964396487386447,13.843765571039961,55.97822567796057,-19.554277268547914,11.619395900035856
0.472,43.01798734511536,-98.59544639464781,24.343545967878914,-89.10804735691009,-9.689645454385515,15.902300612052453,12.127427413361676,11.2053705967335,48.90532466552718,-13.322114041561491,17.351302317515632
0.48,29.99818865919836,-103.24391232692199,19.834422463614548,-85.9775317934898,-4.672787589698059,14.587386418323907,12.954649768598118,9.1169882629459,43.86581662142735,-6.982697250075031,13.726061091731344
0.488,37.58276514617179,-99.62151243626178,24.35137879152788,-69.76589160813347,-6.747503287876986,17.247143863891672,14.829340829391748,15.404904636884625,40.80929816880333,-6.463066574395735,13.410670004970214
0.496,55.77054618207367,-107.67540298808893,29.99571505671537,-60.2023120553289,-14.364213555552674,16.67898123557491,11.68658915052104,17.848369255735093,49.41376120769912,-13.398571273561025,26.292440615236394
