time,C3,C4,Cz,FC1,FC2,FC5,FC6,CP1,CP2,CP5,CP6
-0.2,-102.3564862984018,-8.29695180582789,-131.0419725616477,263.8579836862722,31.57089000279621,-115.33617134559617,-133.43718869694072,-101.18752012389541,54.905268585218266,291.7472599345521,-87.04455551695091
-0.192,-101.4712484997832,5.811412322983451,-108.24531958086743,228.72181475840534,27.62771365040389,-90.22690482252234,-99.30537066917006,-86.21812663900552,85.42238543903692,252.39802538659652,-82.46076169958577
-0.184,-92.54645276580595,24.028097282711936,-94.72422995125812,205.66649285126476,26.60275466957858,-83.67996638723471,-93.65001458048026,-75.97432169023452,91.19125790446832,174.77035685631998,-63.76279195317377
-0.176,-66.5975461173983,22.357759326431413,-82.19398441155515,195.60207691856874,23.94154596663676,-74.74134469561915,-85.05767717034117,-65.08712362648832,71.59120716601461,110.45079490181928,-45.762633529778434
-0.168,-55.818813109424234,9.034725880696428,-59.949403570664764,184.96998666135968,23.201558732601104,-53.65277685194817,-57.248998303414,-55.85676786087886,64.24433988492225,71.31452557486458,-38.933728075872985
-0.16,-48.57612370399597,-8.142239245822593,-30.897027554667606,156.24345178268746,21.41580586455907,-29.209691134705597,-27.092081290195072,-37.35201413281107,55.11672768418776,35.77863492642748,-28.876000997620935
-0.152,-16.99574346236609,-25.735788492396225,-11.034359691738636,108.28642267095849,15.30676899352803,-10.44569754864939,-8.311577205364975,-10.278954146002299,19.83159486090609,-1.5519960023345165,-12.449445333925734
-0.144,7.344577861891,-22.493347489731292,-5.434473633476766,69.15027725959088,9.685764441843107,1.2369765211763026,5.57698140778292,2.991048230663781,-9.896145838441612,-29.88609165993608,-1.1771579863920516
-0.136,2.3702781684517653,4.173734803129323,1.4483839950937645,50.18444184819679,6.756736791310814,12.00660154334902,23.346008095271284,2.9109564251112334,-10.296024912540222,-53.76190360993759,4.630505575579887
-0.128,1.3736991879719727,24.266348763016616,17.97162647247165,26.879198301722315,3.90732770634977,25.521246912110538,40.25249541233038,11.091268118531316,-8.322177493729992,-82.89382762957871,9.482077565227552
-0.12,19.293544566499097,25.301412190122218,33.64163187202587,-7.011692701712188,-1.1646988504880704,37.04362154227879,50.18967776685024,26.57863193070634,-26.245230730733297,-105.77907792868488,17.197551374509903
-0.112,32.85295701873294,20.45353839254665,39.917301498435734,-34.22371526733066,-8.638445150873203,43.419920690677586,57.77411680909009,33.08151941254544,-53.028842794437885,-105.4297647161732,30.724658180231973
-0.104,26.146180508491494,20.631247698119733,35.9909234166586,-56.94994446737972,-11.026569118158788,43.942319072227605,62.18034271097359,27.3291531660255,-68.38558029919541,-93.3481547328611,37.370021276684405
-0.096,10.195633428349838,30.17168039786074,28.455528276347028,-78.5861546240502,-4.44847666209352,37.68760016411641,54.25387375947517,18.95553230800313,-64.83762695302438,-97.40288850391318,28.49851595909103
-0.088,13.921355393461637,38.830443405144095,31.819883168289337,-87.83806140991123,-3.474297285462698,31.94463807094467,40.319395714147724,19.96970211202699,-51.76663859899806,-110.19505760835494,23.424285783442265
-0.08,37.39798756606301,32.16768457936212,41.61763836076421,-92.22294951429755,-14.404118071372533,31.177453630078553,32.28908274789999,27.297733615244013,-37.84110905745418,-97.72280565141287,30.404830050126037
-0.072,39.751265274532,23.797168371414685,36.73394449556727,-99.83997136013797,-18.390875636011156,25.62066218403392,24.047014384866923,24.46533925081021,-20.631046018669412,-70.32255118847291,29.81062149338254
-0.064,20.420916758945584,24.37986514338228,26.64144175434272,-94.15891626681628,-11.444155576054188,17.037809007981625,14.57264661171741,17.153400996675824,-1.9093110830097868,-60.94836272975685,20.64415886842556
-0.056,27.518436969187547,8.953104560047768,33.56046807295984,-84.09965813977966,-14.820897819660944,20.0177879742374,15.845180737844993,26.342946348026565,8.28142098579814,-42.92923176584106,20.792655011725014
-0.048,55.64171662937785,-22.30905129641188,41.5725002296023,-97.6756129256301,-29.525750399679964,25.555999443101083,18.181689338526102,41.970225604608295,4.727493425653903,13.71480943360575,27.764202958509966
-0.04,53.933207011504685,-29.44599619771908,32.76968016392378,-113.85864214526916,-34.15667618280918,17.308453157451403,6.771168704313855,40.69917826820969,-6.631801619347261,59.21843827920504,29.661407011016166
-0.032,26.050997666757446,-17.254515572638667,23.51458147298953,-108.60757400640365,-24.651926793262565,8.784356974894333,-0.7244966885660529,29.768592337136653,-12.808477685228263,50.705267805617254,25.784797799111374
-0.024,13.64067427060094,-26.468743867928673,22.624648715051023,-114.3826009467801,-12.816581501319947,13.223726950744604,8.115821704605276,23.861276869943605,-11.99999500922034,18.26666066177664,16.905838127870094
-0.016,22.257310906433734,-47.61285394050654,22.00351286254357,-141.1668713511449,-3.628295655739961,18.803085124273235,14.520457817209136,19.74803907751307,-17.142074437248173,-15.191001845575085,5.648076212919252
-0.008,33.70443288388616,-51.761329475792884,24.929273991600116,-147.71553585062094,1.499269863256927,21.294773240375445,15.042541728498493,17.62650159497299,-26.63272987344392,-50.09176278670362,-0.12759046959088838
0.0,40.54724188603684,-54.83740573219373,28.3078021372098,-131.22424576176238,1.075628020122458,25.665520582223,21.548909153068745,20.113782552561382,-26.936883531484032,-60.91029540124796,1.8504623150384676
0.008,37.84293897157701,-70.48452553523569,19.371079222378363,-124.45113445600731,-0.2026810373433679,21.928574304161533,20.654934035734787,16.909186532243364,-25.865689075579567,-41.407197657819744,8.15976491780349
0.016,23.405775796949662,-77.63341537653012,6.79793590560449,-132.08941855961845,1.3408440659277392,9.374696916389427,7.196328653511915,6.257218747110578,-37.42655389899491,-28.200558139623745,17.149748965819914
0.024,13.433163064546113,-71.4604449377349,3.1572450507691148,-149.3860193538202,0.4506530637891539,8.898174645594995,10.737718600184964,2.270953212830148,-56.913313116246776,-32.78855517308288,28.81953595549585
0.032,24.151266436564,-65.00643856556212,2.21195023404801,-166.67875014844162,-5.895162602456593,21.4958346031759,33.42150843010073,6.742276386333103,-75.63962273022558,-41.27147894569716,40.8293499220409
0.04,38.24366432571716,-48.23092106879829,2.778355711266448,-153.72467238357635,-10.001949611629316,23.646747571808742,36.189485321283165,8.010268586679102,-81.08438239649394,-56.55170609635452,44.430286059018606
0.048,29.070750035538214,-14.431046264474407,8.339972762083358,-119.99416707896707,-6.927378852503814,11.799675592215099,13.935456487884425,2.8107874735875074,-62.23348785498747,-72.06817301538618,34.934294317593526
0.056,14.415597166772608,8.748515806993307,11.782673509030577,-115.9927417570542,-4.296163084329585,5.988725639827358,3.137148616422999,-3.316930407010185,-42.86214320493544,-72.20575691464103,24.52946309572791
0.064,26.94667129154335,3.318770385974945,14.062810772245248,-137.92606555320805,-7.539899365055354,13.256523897593114,12.974184188800578,-5.148611899045989,-49.24579648005476,-70.43109969870763,22.69191388703341
0.072,46.90100914007037,-7.420548332578188,19.416912044735746,-141.65988864266794,-10.539663881029986,19.108795068643076,18.29249406975861,-3.298894801017199,-57.55940215091384,-73.74737391025396,21.045702892623712
0.08,40.86449827651934,0.47520853572949556,16.019125722536234,-124.70807142151335,-10.316941211373733,12.925481040885742,9.44279268363228,-4.706325170383907,-46.31428042948615,-59.76862749022724,16.880977382515603
0.088,28.60907234238276,16.293279324085294,4.9611442807196475,-106.1067738365156,-12.132004057265492,4.358375765342911,1.2550364197814614,-7.959456496110977,-38.90937560785706,-32.466114327304815,17.315107907776557
0.096,35.00744617502662,18.03606785509437,5.754499086791434,-93.31569242879232,-15.961405700328749,5.532030215933495,2.212721272431523,-2.5104534134147602,-43.23534362192145,-15.643740136474534,17.527275765327527
0.104,40.79858609857908,7.331371499508442,13.149870415098693,-91.59247129004746,-17.081796240562603,8.696129130933121,2.2354647661133513,7.742496466632736,-38.86553364219726,-1.3718843914353083,12.613310335118582
0.112,33.90962094849365,1.8976172173951742,10.554693433831456,-87.40938496891971,-16.41675395377258,3.0957936505984773,-6.267612798433851,10.300672724744633,-30.727714974081355,14.933463526726301,12.097824116903952
0.12,29.509212792633303,4.03197353564502,6.737540182473229,-68.64788426330466,-15.350281807448875,-2.327278725884657,-12.187860039375234,7.7696011504708125,-34.569210085790985,11.79672624959809,16.79459996504377
0.128,26.900643190546116,1.4351245689235592,7.0458955413773126,-60.41864341521701,-10.532258555230761,0.6042982836372353,-6.468582524058932,4.548929358642542,-43.291974929857254,-4.2488397501368205,13.776145453602446
0.136,19.122348742410214,-5.679459257191037,0.6451070225195173,-65.34405618368906,-2.678761089276692,1.1979921229185733,-2.9695496396452556,-3.30962944697948,-49.48990681663799,-8.694564846543473,2.9425930237401414
0.144,16.957315455197424,-7.333339664456465,-5.969150775313018,-48.86272664375761,1.5884203889192168,-6.891546963938594,-14.3450638690988,-10.628412488801445,-49.89232258900022,-7.503170024976438,-3.575634463958899
0.152,20.708921332026954,-5.940621875809677,-3.7102108337040396,-31.574974033325965,0.39955815829065733,-12.682132896565864,-25.38049961731256,-12.028645034153396,-34.81329780660806,-7.886423373043133,-4.291251156360283
0.16,18.499822628707353,-8.168002609177556,-4.886415852659398,-55.71057192919309,-0.23908343478517805,-9.09069374550736,-18.995637149182485,-14.736348144256135,-16.75430795083015,-5.480008258128352,-6.887157396231997
0.168,14.52542721813515,-9.906514910395439,-11.6199127477916,-81.05826955810801,4.14615764234171,-4.600122261809597,-9.203901937008911,-17.702047996473137,-24.53617198474105,-15.413743586857747,-10.88656573639999
0.176,12.539873917424643,-8.565156450707102,-13.503988993908347,-64.81253047922603,9.766615877230848,-8.722298604715414,-15.377509516715168,-16.09270760673424,-48.14205906203548,-37.0702962924891,-8.742949239688366
0.184,3.343213351783281,-8.27014969212112,-18.4503148552264,-49.071042897354204,11.565651125141574,-17.2547499450314,-25.452089549788415,-21.845213522689907,-50.16952824278096,-37.58155007096486,-3.3704367231561942
0.192,-8.494240879568709,-7.618684587584239,-28.967464940823827,-59.92535513771648,12.38214423901602,-19.15104808509621,-22.122414781895426,-35.794834468719806,-31.150911570369683,-22.50842506735602,-7.516534547249351
0.2,-9.137735505561803,-5.581447324746708,-25.578641760856467,-61.33907806419999,15.624284324120882,-15.020271186631158,-17.53985551864658,-37.09802308760356,-25.568261522210754,-27.798332243134872,-18.16245113114068
0.208,-0.5230296430041623,-8.872094555293986,-9.963431732350141,-50.023550505420296,15.733828465503889,-14.3445998340403,-24.521397691309488,-26.070808746928076,-43.20700864649252,-42.993478637025106,-15.861070183346303
0.216,6.113769040754335,-15.676762414064008,-6.766338698495029,-54.60648518936694,10.823807492650165,-17.504872384962702,-30.88374249138789,-22.112866493755938,-58.96072273623905,-40.8187589412108,-2.213825504725005
0.224,0.69401336790428,-15.405138433802207,-17.60536988601866,-63.64628298461987,11.21301756450222,-18.979161863313834,-28.587232492751134,-24.743662882406596,-54.062364674882915,-29.78732120497615,-2.3046090316382637
0.232,-12.297548650799852,-10.843967771060404,-23.502085836148645,-55.46505575479301,17.759288739441487,-18.207980679797007,-25.52454267721026,-23.250959918345306,-39.380878626854575,-21.03904153294451,-16.88794902926426
0.24,-6.010752443362408,-10.417510297688096,-17.412131550681806,-39.842773559125455,16.12900280381384,-15.192210825784766,-23.810016695190996,-16.539982708459682,-34.297960486268195,-18.299263292656796,-19.28659163511657
0.248,17.32231741384695,-6.154850794444812,-10.238783108475303,-27.910809021239405,7.622215082415118,-12.346753371547562,-23.050667752615496,-8.16940236473504,-36.25277464197533,-31.86428405249824,-7.2420550160263915
0.256,11.262555089153066,9.935475772173136,-15.655051585359043,-21.038537633536635,9.220829080393786,-17.797782760699562,-29.453214091030517,-8.13593884921164,-27.83719512420726,-47.696274689360656,-3.959640510863956
0.264,-19.139237882980115,24.975645646704763,-26.360330347146682,-20.676307506710856,17.272972408146533,-27.877148752341583,-39.63804723085212,-18.740711593852573,-9.931592928112776,-43.984417836441914,-11.976668603601725
0.272,-14.016666205659238,24.30535568890712,-20.379444048142144,-17.66441515722813,15.271751988697481,-25.654996150716595,-38.94688504382351,-19.2890374162502,-0.4203227811968102,-38.71326719455586,-16.400381937913405
0.28,15.671620229239347,11.539191128096265,-3.503234273625076,-6.39170732922744,8.69773664384691,-12.180892549285113,-26.068112353058012,-4.265156227792469,-3.5960080477179392,-45.941671123867366,-15.025456865019631
0.288,14.44526187580731,-2.0325890994904237,-0.27979450433283676,-0.4915981799214041,9.13388633083878,-6.991718807906451,-17.51826123670312,2.3212530485027276,-12.34727877088261,-43.349821941073145,-10.412720759953675
0.296,3.281760229721213,-11.39656681280366,-4.938209369020028,-3.188942440822093,8.479636743740585,-10.714076971722022,-18.77959863999759,-1.436701761390943,-25.49555092884184,-28.687196666761672,-0.2570540909326067
0.304,14.600779054093021,-18.371251321228893,-1.6761938720534864,-3.4334280161294455,1.5270704762228513,-7.971271086997992,-14.998670816324525,2.269732788061244,-34.502070546111234,-20.297122098915132,10.683921349049333
0.312,12.983626628543488,-25.648888325390434,-1.5521980367302912,-7.430851737715911,-0.2663421898230651,-2.502808942107913,-4.691878149698747,4.182730220735591,-25.85676862524069,-10.663727866390344,12.584526797253522
0.32,-8.264405748285625,-30.907706040678452,-8.54298935992583,-18.748581442001832,5.963252280962581,-5.870206291555499,-6.071822192642376,-4.749674180129827,-11.695787915402905,4.814357453503509,2.943952944472872
0.328,-6.713941348190142,-31.07840913203566,-6.988173249299211,-14.178323062432584,9.297429080949863,-10.36594284798823,-16.901531910436926,-5.730827260174637,-10.955385951176815,8.881543550275484,-8.789052183802694
0.336,5.573243888651788,-27.557853698073306,-3.577828567161908,10.060314521431996,6.974379682717858,-10.213398388809372,-19.44391958794937,0.7739369958187436,-9.762206077088834,5.2316923809762255,-8.77181872238449
0.344,-6.46977389148605,-18.82188918385511,-14.154523740568662,21.998025838598004,5.67680601832224,-14.533070596508855,-18.53024495145605,-6.742073564532592,7.1119772314998295,10.638963520867902,-1.452234385380377
0.352,-15.36749544220382,-4.92696577177705,-21.78242529174145,13.931165917120012,5.284008206621984,-18.448237625917404,-20.911632426463576,-15.878706957576329,19.8985897060363,18.09095087619413,-4.025086880923821
0.36,5.9525211333406896,0.9703715356052802,-10.123970793388045,9.47127404650683,0.03197406327459835,-9.227698735343603,-14.2292127521245,-4.097559325854844,13.534807947875313,18.275318210562293,-9.439686349034691
0.368,21.739729294553165,-3.2485005843982866,-0.9752797109083696,11.724224312506342,-5.870522991604399,1.1948950123708784,-1.391325029227334,8.65321983329887,5.04858025621326,17.758072953217003,-3.3116741993575287
0.376,5.701170594515135,4.430222752667715,-8.979857746886905,15.696588817436137,-2.6378549948159367,-1.6576576648129513,-0.05540335413862501,2.6562475780643378,5.063155877333748,17.062165540578633,-1.4233635898452814
0.384,-7.429904498731058,22.94027875947407,-11.130172378080152,32.9578452072443,3.4034266754336038,-6.440375394953776,-7.096576695311591,0.4169943462675752,3.9511808783595685,11.746738228636808,-11.199458978242255
0.392,6.387513198638484,21.112625457871154,1.2265956115862469,50.11474506026839,-0.18681462389265643,-4.317569349604143,-10.506470256823977,11.761006026907642,1.912681258876756,9.53891248442942,-9.890112658603053
0.4,9.985016013612121,2.522792310921239,2.934625707071627,40.14092654291006,-4.104422055012069,-4.306430196747419,-9.69037500405224,9.281597096019294,4.250294587756449,16.28106332705837,0.36123133623773734
0.408,-15.51908027985326,-1.0523590790899573,-8.9022979502033,24.26052113707369,3.2347380770163534,-7.739119176936203,-6.531181519241559,-9.825606294841764,1.1586398270839553,20.498559700593738,-3.1038686585914848
0.416,-26.002828221698056,4.052961088095462,-12.017117396488702,23.842604256165295,9.00707425103131,-8.1790140889032,-4.72674021081064,-19.890140105457373,-7.296663844111107,12.901933001585078,-10.384321172754312
0.424,-8.473313862824947,-3.2847485924457325,-9.73177388667601,10.020986007758763,4.3846315800446325,-6.747511839672144,-4.830682662336827,-21.60399333713125,-2.1126912572900114,3.895199743861531,-5.9928505944325074
0.432,-0.08928751696905415,-11.478750268752123,-10.967609784274444,-12.002781904279216,-0.9419306721493171,-2.220997585612382,3.2082993272557716,-21.071048350766265,13.187127876318666,6.400042315089863,0.661700315686366
0.44,2.4009492577598635,-12.391493588586105,-2.8978954874702225,4.334057380810362,-5.7991009783613015,7.379390707277615,16.799725872119897,-4.6573490829072135,17.525933554321323,19.72039175825784,5.774344010219368
0.448,11.823947034352175,-18.005759906883792,4.95602727736526,33.182012495375865,-10.300981602589086,11.318366469584621,19.517033108811383,10.538787196190516,15.33844745023174,35.37625134525408,8.926777853943268
0.456,0.15731021033784984,-22.65156479971476,-7.489784403429335,16.387160057677534,-4.941347362674571,5.377002284302034,15.322549080300549,-4.170149003742166,13.081129428449199,41.23335787792389,2.8756224302783258
0.464,-16.594302928761834,-14.422347125241933,-13.4918927248603,-17.83320532107192,-0.018428478032005747,4.978100266758299,18.862962268445404,-16.539544845473696,-1.0047830623898866,31.85923128879995,1.1442946910610763
0.472,2.8630745357505867,-2.0030346930594267,8.190920118097566,-19.055276074930234,-10.894862729727242,15.425947385297395,26.126923054905426,5.352386978864585,-12.634695661732037,20.152845775460282,15.218450781981478
0.48,14.040972964951907,9.772109182983353,19.92158663529315,-0.8860825045946424,-17.28477868099707,18.078786587985917,24.97575063858979,18.50967501484176,-0.31512814129916616,13.29898751508709,21.352883577113406
0.488,-23.82408191598716,24.50442965580719,0.5862397076704716,15.14245854684673,-1.425141566197353,1.6199241683938022,9.181990994264984,-7.331011248383449,12.346385493689091,-0.8662427266666705,7.886703502210288
0.496,-47.42675017409681,26.27534501227951,-14.06295510182303,22.62688392345391,13.076053425537312,-13.271003954983211,-8.669423154295117,-26.250634135683857,9.297969216039398,-17.612326568275982,-3.8606494933156923
