time,C3,C4,Cz,FC1,FC2,FC5,FC6,CP1,CP2,CP5,CP6
-0.2,1.9529425804914293,-120.68196097496995,2.4130879694748684,108.36119017530672,20.70866636602585,-27.736430638000687,-47.121164883855265,-27.546551883661373,-102.95079717462299,71.21986974519905,-22.4517603838533
-0.192,3.007928316565522,-110.4039582144673,4.890580858071132,115.20353858693818,22.110753119414863,-30.393358471033007,-54.94303558997037,-26.249948848031714,-88.10094553238532,72.90056986915837,-33.76861186531491
-0.184,-13.961481553608905,-94.72653834368742,1.2710689661780954,122.32131969739993,26.879756600517187,-35.47175608158484,-59.99115488691259,-28.978307826541517,-66.23871795855293,53.218619833102096,-33.548174133898854
-0.176,-18.092055139442298,-74.43491497785467,7.473405165998716,112.80163707792221,24.191402599682764,-22.60839117271919,-37.94702211159036,-17.08854039265474,-53.24652532792537,13.77836574560617,-18.22514379412606
-0.168,2.646975420885676,-66.00631168980198,10.88741104098265,81.41793696270842,16.396533252055256,-10.630069229119387,-21.899863832657147,-3.1441179734151072,-42.09024843259201,-7.340636360096024,-8.955300646615902
-0.16,15.692467636434142,-68.90660096500181,10.858925971614006,56.20615590729141,13.46221769215081,-6.877253797902575,-19.440488895658397,2.4346885929634863,-32.525128087717185,-1.7800067585943995,-13.925815571231118
-0.152,4.963518349710142,-65.90647204631587,17.179440979205726,49.30476489170576,15.147163611708628,1.6168100252588624,-6.673280512017292,7.824246841156119,-24.300639279011868,-0.004242374225065627,-18.17634574911139
-0.144,-8.348256880718797,-53.08473648356793,12.417720296808497,42.933488757247986,15.945790440025592,2.557370245733037,-1.1067847899862473,7.312036993803464,0.10949404586244288,-6.5408281540395246,-16.127010461532738
-0.136,-8.401717881111344,-40.25732873408089,-6.391768714614507,38.97723025675869,13.847753037791882,-11.530235373917188,-18.522822602000712,-0.4371287598884455,33.66715769246506,2.9304689571282747,-16.53444787632639
-0.128,0.8072496396595954,-30.775814228016827,-8.33434171150836,53.800459778162384,8.615741903856753,-13.373291191393138,-23.13608266808921,5.786537444899025,40.00762302488671,28.437174940670257,-20.932876509398152
-0.12,7.394905204006886,-22.796176362799017,5.614820443982744,71.32572541614172,1.610240252646958,1.797707978192255,-2.820737317558987,20.649795609969747,24.45832988295281,51.48025240284751,-21.22483728985628
-0.112,6.927267298549668,-17.437423472575258,8.587690243749194,67.55868704713883,-6.390899127897888,8.685952821724193,10.458483257335168,21.087889086325752,27.46106281091497,68.77159605030066,-12.002164328695757
-0.104,14.877511675820573,-13.121893153500999,7.535182674675195,55.23180610861653,-16.35962808522496,9.959811479297844,13.588173015090318,23.619932252829127,45.53795027419324,82.76597096585395,-0.7254580087447637
-0.096,30.321117830913728,-3.748888616827154,7.8262459378008735,47.967007853064956,-22.429016016036808,12.84658081555612,14.571531894597506,34.69290054694171,50.75496698717425,93.95076119568756,-2.5374089352861953
-0.088,22.318965176737233,12.997247160137704,-7.201448725561265,31.62138914645341,-18.564153365403264,1.5413200769454714,-0.0118776836695268,21.29607201791544,50.30663953204229,100.42079587095719,-13.074680876717267
-0.08,5.083611365634226,27.393787823228,-13.900687122987453,4.85184868274566,-17.21405965350232,-5.521660609347055,-5.568410286115194,5.353946282842748,53.62933064495205,82.59682129671627,-4.2844018133881825
-0.072,21.017446596864154,25.34514438500728,10.96500607540809,-24.136300621632554,-28.067777976847868,18.103901753635714,26.453998754267182,30.454183023696785,48.61243017963939,34.41107127668572,27.889726418797675
-0.064,30.837801727652884,18.38078385453076,17.89306587313562,-64.10625367585888,-29.415519798893904,29.895819512246483,43.001085632883736,42.04546881546867,37.77817736706451,-8.779499727168936,43.89614457138136
-0.056,-11.370354235368957,35.92333816149437,-13.347389145917417,-94.92573851440443,-7.617276329648196,2.959105871741355,12.415467266734927,-2.44650668187883,28.46307164587806,-36.26111051058667,24.850781616232677
-0.048,-40.620752436388926,66.23473752753799,-20.867395140626684,-82.62626164538237,8.770606885200701,-7.5171581314171,0.734587857046069,-28.29178337009758,13.698103097183775,-76.86711368112027,8.34919878095507
-0.04,-14.956432058548037,71.6507408954981,1.0718637261817958,-66.63915262456293,2.8779060292472782,13.280375503328893,26.006566078803328,-8.673132713469691,0.8274451781855316,-113.74086156801985,16.48462640030415
-0.032,-0.597593047032514,65.64847975680861,-3.190489496230448,-96.88295424624839,-1.3838752795474816,16.216954490954,30.589195632156887,-11.487043576008615,-0.994796951296823,-111.15372210265464,18.1187850165972
-0.024,-15.464877871630101,81.0118041766086,-18.203992221936307,-136.42600980677125,3.3717828717390175,8.912253894919491,23.489341887821013,-29.745117490982828,-9.067016699765613,-98.42814415793198,4.99408511347732
-0.016,-13.21275124934653,103.97812396553526,-9.138561340193304,-151.49951097435624,-2.892113651368292,19.99368483097816,38.708132676791415,-16.336532043015758,-25.30484370490088,-104.26334867804502,13.616761064701198
-0.008,-7.928787036814294,122.76305821169275,-7.162427981286233,-167.55049559966585,-17.89169309680229,19.888153935840155,40.22579704161727,-5.540832220251367,-20.58361502739074,-102.3126262937018,43.99371645693571
0.0,-14.894649429915127,150.96177234538723,-19.147014622405248,-175.09150863671994,-25.710302280890236,3.4038014600821436,18.94036506493646,-16.592153728914518,10.091491812766764,-89.41019778372889,54.30061280471485
0.008,-2.5104839421534964,176.9519665489672,-11.236665679436967,-136.22721268882506,-27.8622809428639,6.600682976392742,18.51795041357223,-11.944701859143501,38.06220973424969,-92.10265692772303,38.29513669223153
0.016,8.775117874597568,188.6264514116405,0.11529522390130459,-67.94386689432406,-27.290628568779415,14.348624409990851,26.642707650512573,-2.642513563026916,41.764777710127206,-98.78454006610202,27.378875289648985
0.024,-12.462154439650863,196.9115479809111,-9.349831859362109,-12.101372150073628,-23.03852718577207,-0.06393266111654679,11.541692247172529,-13.804033162910137,19.29027736693728,-84.1929824762458,31.968326475805277
0.032,-22.925830330169415,192.5950352199755,-16.6068527032679,11.137091223437588,-21.004572422181315,-9.659096299752461,0.10512517669511379,-20.360525021409817,-18.933869769821136,-52.80980259173486,32.035968447915
0.04,-0.10403614985553031,183.32177787430348,-14.838674575520686,-1.5299629743495988,-25.07429291324134,0.8706141022048849,12.421721776099034,-15.927668456901213,-60.86477303790831,-19.49300380223585,19.757292767198955
0.048,21.820388661981934,218.10586468339213,-15.950172584548996,-28.45182565408083,-39.161111138821845,12.380877902560458,30.068804887476695,-15.098901133853055,-101.9303294360201,6.837340012326758,21.22497768521785
0.056,30.000845449407823,284.5743849993191,-11.5810376413621,-46.86399819960098,-61.4427397017884,18.72982169541661,41.8838812756062,-9.560258473505153,-136.77839230310704,23.67764844629868,47.21620287189168
0.064,14.337280503775313,319.57790524048016,-12.582635431391287,-59.92311143502492,-64.75162427260996,13.247205633592996,36.23719536040128,-15.21907795947872,-163.6725127092118,21.575044855553582,58.65729590882002
0.072,-26.150403704710435,329.83387899281655,-32.99494477770752,-54.429316134997265,-37.166965692536586,-8.540902830119077,9.862994535173202,-49.005169680105006,-195.03391183137197,-24.35714145516886,36.76951063977185
0.08,-35.13419412715447,341.7364598470351,-37.60412619857798,-8.708175635425134,-14.395102334158944,-16.657950461051257,-2.117851117203769,-66.40277381558043,-231.30978463419694,-98.01939419741032,16.794645206140686
0.088,-6.485952574238177,330.3678397282212,-15.396870626637492,44.21946473247569,-12.18575320376216,-0.9441278480190965,12.844782398416033,-53.37102401427405,-258.62426148480506,-127.78212324488595,7.681165891814198
0.096,-17.138916078365302,313.99917721331934,-16.013859968910303,65.12068741755756,-4.067459671377021,0.11106271957388902,15.838355941090445,-65.9870485871819,-288.92978703908585,-97.9405095256177,-11.969629698534327
0.104,-55.87021304610187,354.15907505303045,-44.05153376602785,76.25063810599782,5.636658969397424,-18.996790427251167,-0.06893814771734393,-101.68846986206961,-334.79988180018825,-72.33047994021166,-24.944277263405322
0.112,-46.96410490588283,432.52464655666836,-52.26635529279551,98.0256976866783,-7.689172568381313,-21.91949081288225,-0.7387542192960854,-103.33058090034784,-361.0787331436435,-71.22079962485958,-15.38268744588686
0.12,-27.527362326807417,485.9708196054847,-41.05230286043427,111.1880700850851,-25.87023845085129,-10.274073307890191,13.135248364140265,-82.98764440086711,-339.40198056280576,-63.72618318479289,-6.732699753637214
0.128,-56.859320110004944,508.73001193170313,-38.94322834175106,121.29941381530803,-25.99176006078764,-11.50329326610795,15.435605810294854,-81.73867758417379,-301.33348115736453,-62.84756305225672,-1.0515032099851955
0.136,-77.46201269013098,519.2102843111992,-39.069800119904876,152.97156154938068,-21.942868848821103,-20.106743109730196,6.0458736058125675,-84.0004948949477,-280.36296889521884,-89.80371720325125,10.46658910824031
0.144,-50.337763976421925,521.755073764413,-33.14326240634024,188.55323692572196,-23.723049035437587,-19.67060329349925,-0.09127900262350226,-72.90145329982275,-267.2319774449918,-108.94107117695002,5.117593894219783
0.152,-37.66062762573747,531.7697967888337,-33.29219159047802,203.52749254202362,-25.260188431105576,-16.2493231483326,1.7570079397740186,-67.76340188116312,-246.54559847489082,-94.24456436917569,-11.878684522098498
0.16,-57.79648319232388,552.1046494502243,-37.5678096326357,214.14529344839337,-29.435878123640165,-19.143196188187474,2.924118168142992,-71.43278175926265,-222.8718273372196,-68.35426349913436,-7.768579449317161
0.168,-57.14819563585486,547.7914553920269,-36.712879871779,230.47503013613263,-35.24564909089525,-25.9052254655165,-8.401048363759847,-67.79139038814763,-207.95086900825808,-39.570689025691934,-2.5918361257725833
0.176,-37.28702668822618,497.07029310377374,-36.1165912980318,232.6714276603036,-31.169513450441805,-30.142135039587487,-23.4657006331886,-59.346641554284034,-201.7316256270806,-2.4066193968833116,-23.14044073858672
0.184,-38.57759240444804,425.7893511722831,-36.228997696855735,220.45042239691122,-19.672582333720367,-27.37007533415487,-21.75176031292061,-53.77510000827486,-188.76087536073686,15.173080083963171,-37.184923272798216
0.192,-47.306935433628546,374.50543006175184,-31.799941274720233,216.4642336948802,-13.587918644373243,-22.664429227538907,-12.460845340826666,-48.732927818524246,-163.5172499624172,-3.5885846503596706,-25.77138276273435
0.2,-44.4645028780406,361.81915577999683,-33.99886847922227,221.71636758553942,-12.935833264924792,-28.378820880684014,-20.450504964901427,-48.82194413797772,-138.00906984456577,-26.476922251285416,-15.733362968376207
0.208,-50.927903574058725,371.5139092322414,-46.483909138870764,218.5957233330115,-9.694450058041935,-39.8398502071066,-35.18825163648482,-55.16824535458624,-113.81775687219273,-38.99429805314389,-16.46822360084374
0.216,-59.813074970034634,370.4064046903333,-47.64879476183494,201.1180325774395,-3.020929564013115,-37.054987238536015,-30.669889630043468,-52.13681144614723,-89.130502703369,-65.30861387479153,-21.16893059872756
0.224,-48.52005673975016,352.9398670763294,-36.47157834693733,176.77295951494585,3.6037129173151285,-24.25887297300876,-17.91117090251579,-42.11946751836343,-76.38034563845973,-101.12684696716332,-32.93546564989275
0.232,-44.37515519559462,340.13962998338474,-36.85276633714135,153.16651467096182,8.850801028549927,-24.10543354531862,-19.974517878807664,-45.72049470415001,-70.27147431028997,-120.4454130340245,-40.01019510555132
0.24,-59.882222561238635,329.41968716983695,-42.02506850626562,129.03252113794264,11.010065622504273,-30.25841195281285,-25.394057337088377,-51.80139151725308,-50.76464333659263,-131.84706827306556,-28.74464482185953
0.248,-57.605599229068304,303.35703555581455,-34.41696307405975,100.78678101801871,9.91903791291147,-24.27069380197083,-18.095404006285047,-42.78041738454429,-29.667997168288274,-148.60059938891584,-16.922733841390762
0.256,-43.23678606398896,275.27257382489677,-31.4017047549799,74.96589977801364,11.146147867250361,-16.961489288430677,-9.873212813529165,-40.84309300954024,-25.517532363784085,-155.62108025641217,-21.083883889234283
0.264,-50.0449115217775,261.7562639962309,-40.57435791086819,57.29821211091609,16.8771307342909,-18.797051851433043,-9.263569157037033,-52.92682849168865,-27.514592706106384,-150.31942911059113,-29.569346030559654
0.272,-55.51406208562585,249.98376072572992,-41.55260261478205,46.41675113454921,21.01213767806114,-18.76456458091236,-9.823398036068905,-50.38189677096545,-31.1940394232061,-145.5244010736031,-34.12993468429077
0.28,-40.30277589041188,233.08356808954386,-34.196048343793855,49.932445685363746,19.664023913193873,-14.42201651649308,-9.378283469540383,-36.58792573143348,-39.7164137367313,-133.0874612103372,-38.84948816307263
0.288,-26.888590953183026,213.7875361365266,-22.282239688634753,69.52119893401249,12.247162561903904,-5.99270273047092,0.3760862325542499,-27.882140859490704,-37.801696306039425,-107.20877792360596,-35.28868153439501
0.296,-14.822147120678242,178.7080776747998,0.7962413871648534,84.7904130265237,-0.14115206391609228,10.42079684116616,22.2757734475132,-10.970992897434865,-31.786097236618723,-82.43773106103983,-15.411607937397514
0.304,-4.832770926440844,136.07671648664225,5.674736605763783,94.2648899414187,-5.972318496642549,12.404302524989388,25.002481231994476,-0.5032312850445442,-46.708758091631594,-57.385743398147596,2.2885905421724093
0.312,-24.855968157657053,120.33421726410779,-27.776080620328948,118.54666317830075,2.3498556395718215,-14.667590135179276,-5.093701789192724,-23.463828987504787,-58.11945293669194,-19.678520428052316,-1.256766212333294
0.32,-49.12549930929835,118.65957608224322,-48.85013943578087,137.09445661372223,7.872142269579445,-32.504194195629495,-24.996264754840947,-40.51079221823598,-30.762817140308286,24.66313470554316,-14.746955908324198
0.328,-26.5454124712257,89.65033525818923,-27.491002282519826,109.1351385540856,-4.439244611481698,-16.53383952953938,-11.486436646989361,-18.040138344297876,3.7643763396734817,69.67577983375611,-19.30001224195182
0.336,16.80148590801922,47.241163311517,-1.2279685925249981,55.88747874485512,-22.84678979930281,4.953311462173705,7.8055141012378,8.452763914137144,1.3650539140355875,108.96283585671254,-11.177097545339663
0.344,37.84667875744912,22.057800204543383,19.85232787751634,27.511370207562564,-35.04558959918723,20.448442438300457,25.055006067485703,26.237873213624418,-26.152302395522547,118.61573946833741,8.95136789850124
0.352,44.77162531385068,-0.2248375378111078,46.696265984929084,20.093838589646506,-41.022655475904166,38.74934565374221,47.62556186967491,49.068798731130265,-44.81531965724268,97.97443422306095,32.50809052957269
0.36,35.06648839559452,-20.20372793184761,43.64801618448665,8.675350139088412,-34.00137991922255,36.198285595676296,46.456911265717586,42.630351460592664,-40.54747079949662,73.86798171441038,37.07657905190635
0.368,-1.294158079026731,-2.878289537028869,1.766320973881354,8.245978966686403,-10.701168685943982,2.3540181052473503,7.678673862009153,-2.7050134532223264,-23.077410736702518,41.54496182834197,15.245765139846256
0.376,-30.504038600637934,39.328230757049496,-23.816682901936677,30.36908956789391,10.836323272276669,-22.978440801751017,-25.434818806889876,-29.46663128356246,-10.631178920737383,-5.880189505708775,-10.611506861648712
0.384,-30.449667338144707,48.307304661021575,-19.077402688410686,41.45727789748236,15.60830939359915,-21.821230893853176,-26.90513302920404,-25.691174603430618,-3.9067619542261673,-28.037221651781916,-18.810200514054376
0.392,-21.29266943239348,14.614366236733003,-16.125017542177265,23.94073326691399,11.621843695075698,-17.511640638331915,-20.66264910136714,-26.43787016935845,3.3619184615433895,-11.555256871482076,-13.272512676712926
0.4,-9.729207151306584,-20.571892180225223,-7.9637805341534715,10.944507211442058,8.998361826044393,-12.410605236078219,-16.558704395200476,-20.27929738992096,0.9939940213497649,0.7305303609510843,-9.274504985380048
0.408,5.69390656812701,-38.693002777960416,14.250373750404545,13.523770646408611,5.650166433110627,2.485252624115091,-2.8274245387691743,3.3593002768868137,-11.944026219932848,-1.0959401533162807,-6.668969913358017
0.416,10.59679670512072,-49.86838745235815,20.064946892883015,-4.45205821027066,0.21875915044194344,11.62700585422219,11.373195879886623,10.693120293855902,-19.18001792672614,2.185161174001666,5.304285907420744
0.424,8.937249427356084,-53.33260610876139,8.625019395020727,-44.07655100707912,-3.157168407352461,9.246961351579085,13.918493717066967,1.662883826646305,-20.900331064096676,-4.516696682519358,20.684596511423724
0.432,14.353618975019877,-42.811788718552705,8.53163021689171,-60.194111183856485,-3.479502927673523,8.720004716704652,11.294692787171059,5.094276534101782,-22.724685679580837,-25.441724839906193,23.681125637442083
0.44,20.10536871138433,-34.21241076004779,14.886785212662247,-50.85612527555615,-3.3868605163293215,9.586948215251722,7.719524360504024,12.773409536941623,-17.642763035858277,-29.594041381521688,17.11968125384752
0.448,25.11296211017958,-49.25766900516624,18.407585850030625,-55.19814183633481,-4.716949940516495,10.248176904878713,6.063689575482045,15.2060190881814,-12.300285670341543,-14.67242833748917,14.28813311132776
0.456,30.13784093846669,-76.68415844750184,24.580501800814407,-67.08507164703323,-6.225659356937448,12.68542337703744,6.8405103182044185,19.665154751045012,-15.467939754955832,0.9622463125147489,16.352480016293068
0.464,19.352146931664286,-88.9457889179904,15.633138501017713,-55.21913213224494,-3.437157545740552,1.112226127267003,-7.6558366094200725,11.32688055038897,-10.83582635288037,20.779043501017522,15.849407959308524
0.472,5.86991262358456,-94.49843849644333,-8.302942313525632,-41.033594923383966,2.0971532721136312,-20.135609455784397,-33.05428440573013,-7.322934477451486,6.495713413186543,42.15040708988476,9.816609317273514
0.48,18.968794012599528,-119.83379886230051,-6.298121666550154,-57.472194127064256,0.8494098753581986,-15.37724410972128,-29.01525782108596,-1.8588098680288385,15.145178871710728,55.658238298511144,4.758140572300951
0.488,35.44391432792646,-149.92027864498309,16.44390872098872,-78.98486867733925,-5.447769886456506,8.292591898995743,0.1562999719651502,17.414085099413292,7.093663578733244,70.14215888806781,6.13905085326229
0.496,31.705843575368274,-154.99991347273493,18.78982753243569,-75.94646308217727,-5.637890954403551,12.525668406795543,7.756710653262765,18.18351539830087,-9.129499512948094,81.15267952569778,7.244390086067811
