time,C3,C4,Cz,FC1,FC2,FC5,FC6,CP1,CP2,CP5,CP6
-0.2,70.89946454710413,-149.90363687415544,28.824147122604018,-155.41463899244297,-51.927538034843096,8.639232454723063,-6.025850584615573,27.31633862248183,113.01515638689202,180.96685283342222,36.26790837359389
-0.192,67.65134614551262,-135.53447518435448,39.47291494177618,-146.05141204286133,-32.390469860772235,20.745542089291195,6.934503484866837,28.993769745664252,97.73418333067205,105.42459336672607,9.419869173692085
-0.184,76.67191504535681,-140.83549312069775,42.56037478140331,-137.6656750736874,-20.47431606270726,30.988685921187315,22.302627313913487,25.621725977820358,80.71250119716231,35.41945324962504,2.756469352331264
-0.176,70.6048160760453,-116.93328652025265,30.922835614656908,-131.81469188291737,-13.214533843237142,25.28651819475468,19.573085793082264,8.11320519175258,51.62858316617056,-8.606663156618563,4.207377590405234
-0.168,48.292542860618596,-51.57650950904174,17.143883655611805,-123.23877077149992,-15.695174567894256,17.764313358608636,17.155817323978525,-5.687433108703018,25.16917401247202,-8.557979348466366,9.866343565192498
-0.16,28.465692760439737,-4.2483566131411,10.073619388106486,-102.95269727112552,-21.287244878986936,14.064982253050662,20.09127151780971,-10.527374457153256,8.160271110451891,-5.569726449675531,26.08610234496585
-0.152,18.613407356539444,3.235905480236335,7.943537205946043,-73.86399457525027,-19.11964739515865,9.260016193284232,16.77972528266386,-13.4920386971701,-1.5203632719365416,-23.038610462504103,36.709564565389066
-0.144,9.408507915532342,13.951356447357899,5.841963293123229,-50.793484073736025,-10.440648963597646,7.0249716064886005,13.615523801636954,-13.195570072033963,0.45097473289049234,-43.54972285474579,26.67252935041527
-0.136,-3.8497636305934213,47.76226561430342,0.7253676478271792,-25.052034100900237,-1.6698130605901271,5.338101646240719,11.654024118925932,-8.368940658741034,4.685349224970512,-62.83174490219683,11.652418926954626
-0.128,-7.142203086109969,76.36796420871234,-3.376622947032516,18.055897035680136,1.0718779917179928,-2.173510016426844,0.13058473486369215,-2.6758371890403874,3.544885145289816,-74.44031911532926,8.418119995147777
-0.12,4.3878191381600455,70.84563335581282,0.006856789003935893,48.31878960107595,-4.810278634910696,-6.123144518464005,-8.608884679891656,3.9192129460555933,15.47141167873375,-56.25339317873106,12.08298698807155
-0.112,7.58884443050062,32.28255150184806,7.163084652441807,45.551062726268526,-10.907970843505504,-0.6969479331013079,-2.0588865144859403,11.174198449569834,38.4662059947129,-7.360190177861185,13.161956114772192
-0.104,-3.051061025778048,-10.856286690954503,9.515925349258172,49.475533210415705,-10.318567884398833,1.9475744094176537,2.564552685722515,16.907647846592525,34.856259598990114,50.63541454868148,9.593434728126002
-0.096,-3.508532375680939,-29.573850435595435,5.786304998774912,74.78031057264639,-9.064798262299222,-1.8938290719952888,-3.310894836033211,21.42737416572019,-2.2582859984217576,94.93285803550415,4.505311055700598
-0.088,1.7592995128743245,-16.51070682961348,-2.4392222079422456,85.87288669378685,-8.474379694312693,-5.223898131730819,-7.661563961826706,21.766948221119545,-35.64022336906584,106.4059437523536,-0.8749187408838932
-0.08,-8.036578295873,17.32720058749171,-11.68207768072892,82.21966048590286,-2.0468381192514835,-8.163722723431885,-9.64621792051215,14.910589906124116,-39.07928686450547,83.15097714400987,-11.627681379589811
-0.072,-16.85072881629615,47.14010370354965,-12.624240248751509,85.38966516699315,5.413117380435651,-8.657740660129116,-10.710290426791797,8.21579054405967,-16.086648001539512,46.60712164676377,-25.89247272890162
-0.064,-13.260065118965818,48.098394344676926,-5.337224167694827,81.87123418668965,7.873271020406584,-3.452841460643269,-5.246867117564799,6.69633437941136,9.897239202830171,15.924561102349495,-30.470395716806575
-0.056,-19.90852452410555,25.879572904756074,-5.447207836244623,64.84773123337375,13.661567066957101,-1.7806532292034483,-0.38838413280451806,2.3514137117909053,6.576553801192943,-10.151142388206079,-23.568054911091888
-0.048,-37.77008780180533,9.646746518402882,-18.616895241246638,53.36352398230577,25.16403382147794,-7.9282914429681295,-2.5450028958386985,-8.094078713406596,-28.252662741433173,-35.43612188306037,-16.688547510231842
-0.04,-48.5624984402733,13.04594430902117,-30.96803736502884,48.99725278273141,31.502944872209973,-13.353911754915845,-4.958502823655194,-16.589315107001934,-55.50831424450319,-51.82026481160305,-12.677983557355512
-0.032,-55.46198093982425,28.799092548250666,-31.579072802060473,45.45875510497869,31.353331361795963,-16.96017481551539,-9.957272757936385,-19.76280919880362,-54.26810266471472,-57.187745024368446,-11.192191538858735
-0.024,-56.34193959446428,45.32324955312141,-23.20875674036852,47.11098066691913,31.10874391268895,-19.501974082602636,-18.749095882616555,-20.361742758234268,-47.84372113667099,-62.750771884099386,-17.34010368080786
-0.016,-44.01856684634578,54.431045362100335,-15.690884721328727,46.403571921479205,29.60941866666448,-15.851337756293878,-17.890717570559687,-20.7758469291424,-54.44155914069269,-70.80953028762298,-24.308184636554664
-0.008,-39.13984101991361,58.523028319962464,-18.246061390765377,36.44942880366445,27.259689260637845,-12.637742061892983,-10.89650677275088,-25.306483439246207,-68.9440346175236,-72.81621794457845,-21.01541314985006
0.0,-47.441284272654514,63.31254701820251,-26.764512091340777,32.681114609509514,27.82422475147328,-16.66021846773189,-12.146777179580043,-32.57707937948595,-86.52554653242399,-68.2876318097681,-15.74444457382543
0.008,-45.21401023098209,65.91057461354828,-27.769798139510897,42.1721802035437,26.896524830180127,-17.25684227287215,-12.689785424100531,-33.326757414416285,-94.91027561784281,-61.98114392280968,-16.25474201603958
0.016,-41.28272704018936,68.26439427240814,-22.97382987446859,49.86894711074197,22.115976612538507,-12.561962189632203,-5.884632976454166,-29.48665958292889,-78.87621807413981,-56.26200481816357,-13.280984321070136
0.024,-53.25127391693674,77.76710833839692,-24.317160917812565,48.65524624140631,20.270576767399085,-13.837229371652185,-4.8095695268070395,-30.41291926459559,-53.59755708253209,-55.66584291993333,-7.400609394431476
0.032,-55.726443473668496,85.98325454510578,-28.44753616186646,45.52117353641869,21.398738691774582,-17.245528202146595,-9.963635695736137,-29.711499295699536,-36.98645994405874,-59.12801814906097,-10.747849585853679
0.04,-39.63149364415334,80.17425996513497,-26.45880967384741,42.64691484155594,19.763077865513544,-15.587090734057645,-13.033666330582435,-18.55738473948284,-16.75584817744897,-52.73315257253307,-19.848845245467828
0.048,-29.456182044747557,61.52384153221459,-21.19144784290008,33.39736649953515,15.730311524118564,-13.539138421244871,-15.175599851489752,-4.878328399698171,-1.5290298843461796,-27.285666085110186,-22.247297064081955
0.056,-16.514138947613194,34.44892004546304,-15.626007125646158,15.300716473518904,8.116972440868578,-10.22145203443629,-13.337256175031124,4.387601056496859,-21.04116111627323,6.625626579329652,-13.60747002197655
0.064,5.517570776007066,12.588287282529473,-11.236838565069407,2.6701540901619727,-2.5885566650858856,-6.747321479458805,-9.915774487452294,9.331109162008707,-47.787512483850236,27.922095764230555,2.048070267909038
0.072,-1.8518761604383234,18.956213347667596,-13.770320314812064,5.650773156610089,-3.0350430454881736,-12.77674998076237,-17.094672939510218,5.888531330844764,-38.36076971160392,20.80525684517911,9.46927559023294
0.08,-31.617677515504216,44.6293022170498,-16.60007171969261,0.2769983811532816,8.97105530669007,-17.918099091666605,-22.929073467606734,-0.8176642407787211,-22.392361426668693,-12.629116220920373,-0.3973993003340677
0.088,-29.093787122513795,57.25400504949141,-8.773977507623988,-31.97201624515707,13.37700449648888,-8.361884360358657,-12.446744637645926,-0.20416755058341587,-28.141514018915245,-46.314594984576004,-10.246488503918847
0.096,-10.433758187434842,59.1030427757837,-4.287750387755097,-59.71423576373657,7.696763250932547,-3.087521453582049,-7.820467843598041,-3.1701342836340536,-18.577692747139963,-55.1110242642579,-11.05385102609308
0.104,-21.46560213785579,65.54003805355163,-15.656051997142812,-56.765242117162586,11.471062134571456,-13.659420145680429,-20.18179001868534,-18.991642509288088,7.023093651802676,-51.04790270913951,-19.35070828604859
0.112,-33.497290337004884,56.55764555348182,-23.232493292394444,-44.373921644779706,21.390746015896056,-17.648433899472018,-22.71468663806381,-28.413523073645443,-3.6213485283921156,-58.87449114044539,-27.695478690067034
0.12,-21.759903295396295,22.5093410745177,-15.999367129255551,-39.591957738057275,19.39057318570389,-9.706711637457287,-10.221010838895815,-23.063832156790177,-38.82794500833467,-66.70424174687142,-10.80363673802423
0.128,-20.82205435787073,0.9165829971640634,-10.132202465596109,-39.12624509037313,12.22632089020095,-6.397881535969602,-2.676419547419067,-19.445907013703113,-50.24457017492602,-58.65401696289354,12.986914513424368
0.136,-28.8232782968906,18.09634398202508,-6.808944167729075,-46.92094288168331,11.707699020429033,-3.6400861339213666,1.3226461284965605,-18.08649345426564,-53.28706575619536,-58.857150034059295,11.813456646752089
0.144,-15.901315240332377,56.22407126015938,1.2900964895432294,-54.02704308090981,10.15750295925238,3.2113432931194463,5.5290813619665675,-13.737737732592901,-64.72421757616536,-78.61344241031713,-0.6998254158110334
0.152,-6.595537526339921,88.8256661760799,0.3294177304166008,-43.4820529281114,5.577692914296603,0.24836641913689478,-0.04165265457997336,-19.902092421835224,-53.59056782468291,-87.32135412270031,-4.460311381255207
0.16,-16.272094461960723,98.5992292914639,-9.544178897366264,-28.82484621943876,5.141740325247731,-7.027545201227819,-5.886169833158593,-30.461888723941893,-31.08517381069974,-76.82866806260043,-4.954775523606586
0.168,-11.971011431815894,83.84200284223013,-5.556673357179487,-22.36028125827544,2.8601111458967523,-1.3199919035510408,2.5675529435887463,-21.47564243975575,-37.27340738823067,-67.93659421171698,0.8110636759998859
0.176,-0.38764588370327707,70.5114994401345,5.41565651148173,-11.472508227485658,-4.330235054866599,5.842297316706406,10.957620245022083,-7.64821469016908,-48.66353820741303,-60.56536454283145,14.779223425399746
0.184,-8.9268171763672,77.00728698647161,0.8645067428109833,-0.9159209989024587,-4.849809812569424,1.5116886609494966,8.025101387759161,-14.893441945304657,-41.91540994891475,-54.34534155015038,17.34661607830861
0.192,-13.442222867664752,81.59228130807206,-7.049518766728815,-1.6286076523208817,-0.021256808587358195,-0.8100283143596003,7.388090098803262,-25.43043458032508,-44.96968172027308,-59.78994953671647,9.066762154056065
0.2,-3.3208587880209537,67.19805422162943,-1.8483725354913434,-1.1962021447641913,-1.0888183507236535,3.508968296211293,11.146313627091295,-20.648829809093925,-44.77090115019327,-57.85629779814721,7.864793454814403
0.208,-4.793833366663516,51.04041755515656,4.123340319064188,-4.287504182551087,-2.065922873497715,3.03909198991949,6.599709076917929,-16.508841962081103,-11.135058992576745,-35.1788676469996,0.6293430559013712
0.216,-5.709381390670673,39.761749890401255,2.9298360497520255,-30.199707451235067,3.6467040194093054,1.3661539638417721,0.035278747199586576,-20.880394509590808,9.537875021656227,-24.917371477123236,-20.383989319598896
0.224,6.513118866390512,19.137809015869045,1.0029346828419292,-61.37871092908001,7.079585882933248,3.99518154901962,2.2120386042650826,-24.27578813245704,-13.35839389379284,-37.271491565229134,-23.877502797633646
0.232,0.7074189159037693,-3.7503992004257367,-2.9535683846698984,-72.09059358636799,7.196430549823739,0.45331800313853704,0.8738758920782898,-26.98070755979414,-31.270972186745364,-38.835986333470444,-6.699747086666717
0.24,-14.898864569870234,-9.650327598558027,-7.938935550466641,-69.22626544326077,10.704614729389371,-7.2389013370231226,-8.393476315514757,-28.608034581030992,-30.423947022075527,-30.331964407858933,-3.9005234517530893
0.248,-3.525880433500013,-3.460714101015317,-5.850194032271966,-64.99735886298515,11.640962566085165,-2.6443223399783653,-4.532377918537666,-24.46716841040412,-36.32551473183112,-36.455465485905165,-13.623633390218137
0.256,9.626105352934983,2.0341724226927154,-1.5136191433486217,-64.53408728584567,6.567253541515266,7.314767916528562,10.519925146896735,-21.947608892127448,-31.884700561033387,-44.56711590995672,-11.11912207391205
0.264,-2.783929375294477,7.329091688928772,-4.516201525399342,-70.2263603156641,5.003347041384262,2.124475793899323,5.4417215360145255,-25.000277123694474,-16.386443591245758,-39.66522112440605,-3.686184006876941
0.272,-12.172068213322698,9.958585011662674,-10.382428255872377,-69.10866984021749,8.245676721865715,-11.398883828025257,-15.5178671345586,-25.14488071715453,-26.88780573329495,-37.839332400567045,-0.7408801482469005
0.28,-12.010564807711026,3.401394720472701,-12.114887724169686,-56.845496465767354,10.023474993112032,-12.551868119269015,-15.93971195196121,-23.48567421804913,-43.77321299467447,-44.05219238957846,4.476926817841738
0.288,-20.169752347530277,-4.795519664354589,-10.64818896678733,-54.80710143121513,10.834983081850728,-3.9259489121620463,1.1465295071353971,-25.783805415268997,-27.122766517759747,-43.438350647345494,4.821331068812813
0.296,-16.53243358671511,-4.048951096864337,-7.046047271874719,-65.81188083813569,9.246647276666875,-0.0013549330865565991,4.781195612457663,-25.248294365062787,-7.8919768868321825,-36.43264737350434,-2.8318624187277
0.304,5.403339668002588,0.43842080568107705,-2.9488814006483164,-69.38782032698855,3.2256321076667427,-1.101018690619796,-2.676400133165439,-19.535916578478524,-18.3763126049405,-34.17423281551016,-2.256136884509612
0.312,7.779691693759857,-0.03097788760336289,-4.33930435319009,-67.9329282752746,1.56604590245863,-2.4942005210633216,-4.288839973620818,-18.516195209655944,-26.817547621800223,-31.89407593660126,2.4913626812133365
0.32,-9.091284793050407,-5.298150439647802,-10.61223851653304,-75.62946939099803,6.8339568776363775,-4.347181809425007,-4.37193385718976,-20.658922884647506,-10.111518140928663,-17.995673238327004,-5.879681761353659
0.328,-5.253697028764083,-14.991806585801756,-10.674779909484934,-87.45384640272849,6.992301206837325,-2.5546732276081485,-4.44497758444769,-13.109587266288633,6.673897548616283,-3.1951938035723138,-14.077511009879586
0.336,12.487921831852054,-26.7370172772266,-2.1684168507090344,-95.2118129327786,1.2335566226841062,4.964063010603807,2.856372347841553,1.5327124801571468,5.756939900016375,-8.957340913427451,-4.826713041499494
0.344,9.267400024825545,-29.97231887888106,2.1652641454512604,-96.12477325253303,1.3265176569484933,8.403854456945686,8.655805631423807,7.32242251955342,-1.4779089272437014,-24.176260879023445,5.449056275219173
0.352,-2.8291515818996475,-22.948131106937485,-1.1539417409893042,-88.61564254014756,5.305381668341591,3.983948586610362,3.7161685124663766,1.4018261564190766,-7.495326014491904,-20.668877539085862,0.703344635586714
0.36,2.1448926568235414,-17.90842801030408,-0.9657056665656748,-81.06916878583012,3.743777946165315,1.6808970520664364,-0.8599828579793861,-6.11329944799551,-14.419213162897295,-7.918389398806248,-5.920884031950261
0.368,5.723948949770426,-18.339001741536407,3.135602489939984,-76.51223228855682,0.5586807938063952,4.204099807521667,3.4139019181205166,-10.135386363793208,-16.672208869544676,-9.165001948519922,-1.275727996461844
0.376,-5.436243864003367,-19.303290957183066,2.4903413045327603,-64.00339695126485,1.093616671745467,5.90537751216143,10.058290005732605,-8.621476164433309,-14.403037060526307,-11.038968692974185,6.808350411137894
0.384,-2.827718434846976,-22.027445806897425,0.15172330417524055,-46.79272724355965,0.14459955955947168,6.8538955022671315,12.37562431868488,-0.6128893881252225,-21.812190727306024,-0.8712216488033955,9.03368522699217
0.392,15.2548194094409,-22.19156561441884,1.1370565228568188,-34.11353797246802,-3.320086693492506,5.775055159931912,7.372342508869027,5.119869240475627,-34.67553190575841,1.4090778669584962,9.522944096321657
0.4,15.222456931175302,-12.880793849892958,2.3842725176083497,-21.17449195162336,-3.784655056651839,0.6497054343156535,-1.2949193573893794,3.712985441525671,-31.054031940371537,-8.42756001554394,12.488012804727507
0.408,5.072683287795249,-4.536967252673144,3.8324272232913406,-15.82545169024091,-3.0394623538153254,0.04495768246182609,-1.3708371404185347,3.694189054663256,-15.03063083540447,-9.736363275080766,12.123881644999958
0.416,9.856719551594566,-3.2101555614397994,5.722689621795816,-21.97650754638759,-4.727221418942964,6.5252148802276375,7.879360586924079,5.747850319088374,-7.08748991879721,-4.950232532549888,7.299379352533638
0.424,12.242651319725349,4.833614020633037,5.276358282412129,-5.829398081007697,-6.003409606860324,7.166139014307591,9.944567954070395,5.093446978578523,-5.826852042498206,-8.450469759347808,8.413651056873123
0.432,5.277353616178883,18.861968395247498,6.3561617393694405,37.69458211700531,-7.157686088820075,-0.3268488111968345,-0.5611590201448854,8.386554370459304,-1.1263917095347313,-9.158432930365377,15.740571634460688
0.44,8.996246620698344,24.106652363224566,9.904605212103531,62.23144802209713,-10.485550055250537,-3.9540283178450255,-8.773228501867113,13.45839062807432,11.45270175994873,5.06863331168038,14.312436178500397
0.448,9.325788198186965,23.919268535013472,7.182172557030954,66.15349377276078,-10.710721118236641,-2.440389105256801,-5.877695721268405,9.099158043550322,36.809546197118316,22.588204237429856,2.3986060474388364
0.456,-6.402943739822284,20.950991685943922,0.0029575884881634113,81.65857741186834,-5.768696098859049,-2.6873125948358236,-1.3831398411408469,6.38119214774989,57.446365954862856,33.28680929114424,-4.609234038874753
0.464,-6.981125149986833,5.546771752590013,-0.9278451576655689,87.57625476568823,-3.1319602550331904,-3.5570586587487476,-3.6429672669789026,16.21365885402076,42.98301979990196,41.30327601892219,-3.5356972603121974
0.472,9.770947948259042,-9.767432591196409,2.635156057590456,66.44210572300581,-5.091269958562678,-2.0472107865865325,-6.4749710999206584,21.930227369540827,15.213776769605948,48.046940213674816,-3.938891323360634
0.48,10.17594563912895,-5.404295767697373,3.8677119980078936,55.971531045169804,-7.379161134638338,-0.6962485456422013,-4.368175631652009,17.264049777633787,25.026155829929362,51.00417203954191,-5.122069181850603
0.488,0.8890542427351377,4.34483370205595,2.655649591635579,64.1755526902274,-9.254419634090212,-1.6266869859453663,-3.1127731779364343,16.0424932419225,57.593363942648764,53.23158514013984,-2.6471236935677585
0.496,1.5501274772866844,1.6791701805564572,-0.6345729106945026,60.42738234492285,-9.983632099469594,-3.3274954288137155,-4.844541757753769,15.871351315271596,62.765719622473846,56.703116600015605,-1.0866077365544096
