time,C3,C4,Cz,FC1,FC2,FC5,FC6,CP1,CP2,CP5,CP6
-0.2,1.5577938625682441,-44.140336415198135,12.746335455534087,22.420053998150127,-10.739832229727018,-4.100226951506913,-10.345215708478198,0.8169287711202842,3.082792295505965,89.85384574701662,2.106991373700173
-0.192,-11.60895138000014,-107.3590749540502,19.914984365279924,-9.053172848759417,9.615698809315779,22.38273856871021,33.01308941801196,-5.232630109610861,-199.70799971822586,113.26955566490145,-11.939007644419933
-0.184,-15.471084358183546,-32.13719645906317,20.16231946477255,8.922981954819141,3.855398401980014,18.219884709934504,23.608634413129256,-1.5193519438983145,-187.69178791069865,122.91089045942776,-25.495507410440247
-0.176,-6.2246883471668975,35.37312195989461,8.13287533153107,41.395310322570126,-1.9882783461909925,-11.87320376210419,-29.025624966653158,2.852538689845418,-76.6086330133268,105.79249519367123,-36.51721051975064
-0.168,-23.080970808292882,16.68077802368797,-3.3851798559177673,25.65966022213683,5.268759776037666,-16.441721885714944,-29.372255415894294,-4.504152087472431,-35.873909586465125,82.80130417776563,-31.43672346205947
-0.16,-26.589624286311096,-19.4098576971161,1.0546247949653451,9.299431148845962,2.6586837590303447,8.907228277085782,18.975057768198624,-5.088273636869192,-35.630942970462485,71.83171154087145,-12.072525853055652
-0.152,-1.3102035956731908,0.11948306503734923,3.4858792901326483,20.59859569236369,-8.62214164362577,12.695062066960562,22.09197503206398,2.0994180635713957,-16.230255886291804,71.42288824181874,-7.813637698469484
-0.144,-10.319948946947294,55.80612589327903,-0.3137437796406315,30.828647514348493,-9.76732961723618,-4.704487141090574,-7.326136009976515,-2.3187566268121254,-3.133929563222232,64.73278068196186,-13.548852695156151
-0.136,-42.46422129689583,68.20616301162616,10.625439177526657,47.97622393937929,-4.374352018099888,-3.462148249363286,-1.79848293979353,-7.963205163149993,-27.34322979727678,43.00614410213348,-2.0388364035323034
-0.128,-26.870878847221057,22.445258670433827,22.033689311798277,67.61292083651006,-3.242760613204675,1.4741877602049547,2.9584259028401894,0.20652006198641637,-59.05177843775757,23.665755390869354,13.506155338018786
-0.12,15.36728890300804,-0.6460400341407976,11.39729914959354,55.432516438998924,-6.48689541273232,-10.044834628774593,-21.816674768227056,7.117524640167345,-43.08068967825948,18.451558578803827,9.972327307342214
-0.112,19.43393691807344,30.14603842294058,-0.024640114384515455,26.886515927283465,-8.589957095246573,-9.652779049630219,-20.077652099700313,3.9987948052803146,8.832366580827129,12.586101464577569,-3.038600987173996
-0.104,-4.348376972236162,47.300019877487586,0.9760712585589909,-6.225678882336986,-3.6793659194854555,4.984693266097023,7.350661921755689,1.088432613916319,24.726495778703992,-3.2450112597425487,-9.252284068564032
-0.096,-6.9392194166482986,24.908045130748807,-2.841156877412328,-56.07813556895011,2.9469442165747703,6.48555890957858,10.001694463819973,-0.4215655146542482,-8.678613232388473,-21.70629877704708,-5.98131701889763
-0.088,10.018245939465928,16.722475202297055,-8.959811240773744,-62.75020406841165,1.061893097045561,0.9931931503516669,1.6368504151683874,-4.799970986107208,-28.68334787077745,-35.12379480128734,2.3392373908341977
-0.08,4.616621676852878,41.206974228234834,-8.641975163257126,7.184980407303875,-3.269956960972362,-4.034267217496879,-1.5129212693905105,-9.456139215218942,-1.1299040058960084,-38.10456975378901,10.135378650100092
-0.072,-11.252498916727253,54.96589965662942,-11.176883856137648,47.16005241890067,-3.7759104977127325,-13.228001426334624,-12.244125990707202,-8.609497695587866,41.0687446721781,-38.43019611125891,16.54578031348309
-0.064,9.62688146149269,34.38458164616317,-11.910512767842095,-4.425825371715783,-7.675603460439663,-5.933705050146308,-3.824526873468259,-0.7972082473562554,57.219745380806195,-52.24893400051858,21.731280007655734
-0.056,20.661292690135493,6.237170070155585,-7.7687228493101586,-60.437888241410725,-6.423497265623485,12.779142113778958,24.681866762034566,-1.0575359712706078,52.586545165853195,-69.51079193763188,20.15172895943677
-0.048,-27.895279474220253,-3.158722900081707,-15.832912926320871,-57.307180833397744,12.359404892597366,2.6149225808922845,15.303291783953917,-15.570118078945322,57.45038871813241,-71.24967748106147,6.92041807117248
-0.04,-34.883038532934876,-8.86078445246784,-23.36877662569929,-25.690850550368328,22.99886750370796,-18.119792037426198,-20.745468141840966,-12.846982610772486,69.55472166265508,-68.8754315827759,-8.082739168570656
-0.032,41.27323947430646,-31.08160847085618,-9.00573826407542,-12.018579552249635,5.76180869213426,-9.520538563471948,-22.710461906369954,13.716344081273668,72.13754998645774,-72.77222952933307,-2.5513769248923395
-0.024,58.58718030079395,-50.33285400551749,-0.028423433774199758,-33.61341787447949,-6.248787878390708,1.4936648677944961,-5.877924824516468,19.088835523585765,80.10696425021018,-72.71223975237736,18.972686077928504
-0.016,3.774173120572383,-49.10204322702182,-8.204644185013974,-52.02770254701276,5.853225126732826,-1.9308252007633446,0.03661020398099508,3.6590464628233783,93.31444198538208,-77.02233592448158,21.196115767778053
-0.008,14.23170389857933,-49.28855560502959,-3.0551365231148675,-28.5495861098122,10.874972734073507,7.562482954173403,11.939431199867913,9.087506351922448,83.73919717811815,-96.26182753847345,8.933043206841832
0.0,50.11062693360996,-58.98506063807285,3.988740862981557,-3.1996683727057946,1.6290119494577628,12.453771938261596,15.07988163019102,16.453497822233103,79.02506801621846,-103.06169279404082,17.257477390690564
0.008,16.383304275956945,-58.72946369259707,-10.509024142181465,-1.3250257296744454,4.415319922715588,-9.710424291061116,-11.692717274312683,1.8147523846003817,117.16781088524759,-82.09906741577346,24.31685561294697
0.016,1.9833407193300325,-57.23698918241827,-14.156627840760715,21.01390481312141,12.617459163790116,-20.175357635290837,-29.881209839907807,3.0128644137581264,138.22057550055598,-67.20487368818941,6.218711322491817
0.024,37.264452032281696,-66.56809492311345,0.10999957566382781,53.76126880211547,7.458793265661873,-11.292760874559146,-24.395372163329103,19.013747195314398,96.66930540240239,-76.06956017964714,9.25855748474908
0.032,10.424837287791346,-60.679943515964986,-5.730314099364364,48.077577705196596,5.515563738316625,-20.76814112163503,-29.10144660567977,5.569291774341223,69.39245585800187,-83.46758368231743,39.68485636205301
0.04,-45.98667070319591,-42.090967386019074,-16.342091205329357,32.01477571432354,16.253123343842763,-31.6139465169986,-35.73336082533299,-12.114287221057593,95.88636363886994,-84.28423376572917,38.73949431399576
0.048,-20.385612941390125,-54.61564735458688,-0.465971222823681,41.198996043198626,18.75500739146364,-14.72076364274318,-19.785380814451074,4.021885919535754,102.38272098476948,-98.75091610787678,18.840728578127823
0.056,32.61379867060072,-87.30443374578878,12.285985213187548,49.83359425293138,10.552902580930816,0.9219105354571032,-3.6822949254724358,20.292965752681486,69.99911757729058,-116.71955182402597,27.21846223972437
0.064,29.040428183704048,-83.74861107374171,1.29299103481758,42.85615435900505,9.282061779265051,-3.8108036718687335,-5.524376612477287,15.35588492808717,58.830249539943516,-116.55872134162934,37.28833560520244
0.072,0.020793001669493938,-31.903490997771875,-11.311522637534031,34.78993891647443,12.041502669059259,-14.188046305000434,-17.094316149302703,11.909350482509145,75.74905719977916,-110.58551207980875,30.106648366705393
0.08,-21.061768603104284,40.46482149536153,-15.071239046917437,41.698843394961976,5.534240436836577,-25.621368118399165,-32.21656891250529,11.742881612724691,95.61208568792135,-113.98102219467913,38.003027321850205
0.088,-26.389004983940637,97.54026447582413,-4.730726069741162,79.37227758566758,-9.006363409413723,-28.148454084242356,-34.75814519621965,13.388896771887724,120.55550533333718,-121.3739759883325,59.27329842108551
0.096,4.252543420077115,111.49484668262637,19.27584127101041,128.55524230809647,-23.228011262848153,-15.89767565813483,-23.16575771383367,25.718711646039743,133.09750646462422,-131.93493791486253,69.44482130867026
0.104,43.630701026795286,108.51618738792459,23.53219010248289,147.9392842071211,-28.43483201745174,-14.902448243037528,-28.626230256544936,27.99243269576862,113.41460772922441,-139.38814053625327,64.57148038747157
0.112,38.62274685476493,130.07230793339858,1.0474624018688996,147.23586200235786,-20.979485530929626,-28.484202160726404,-45.418940078701795,8.98914395233237,92.48384786946743,-125.68984490254941,43.092389681522484
0.12,4.500888206863643,146.5006428292212,-4.279322580318279,155.03438089475335,-13.127519238881609,-27.970519934430367,-39.177051252011346,0.06928578556912264,96.18683641947652,-98.79626506606925,25.54307986672496
0.128,-2.7674903765431065,128.47605466233395,14.13989508586753,154.52523656018496,-18.37428318981298,-18.42969924384687,-27.45931403392412,12.26956499553468,103.28021018273475,-80.04777444771129,36.088178277062
0.136,28.629851942671195,125.07500177367332,18.704676526779306,139.91370893987613,-30.92303051970522,-20.522034994080553,-37.49765737550702,23.457696273102385,92.75252674528056,-66.4605700550894,46.98027396516358
0.144,56.1027582710277,160.1658063845552,5.822333799136267,145.72255857418767,-38.89738141133429,-28.70688249114021,-51.88117525374879,24.497611689986094,69.30870214184526,-55.563345673686364,43.196407825492855
0.152,45.161558305824855,184.2016419420987,-2.2157089565513255,161.40308092627666,-40.687571583467246,-35.70347440007925,-56.44857425347915,15.64662096419031,48.55514958795127,-56.31585270883896,53.83859000713092
0.16,18.923716404568918,175.90844922315722,-2.8337662419140717,140.75191891213896,-36.49666686209239,-36.86515534311982,-51.75867526587177,-1.2201710655135634,36.57351339423566,-62.326410082208774,63.09911153523647
0.168,6.574109523896824,158.62299356906342,-3.365076622227342,113.96051201380278,-23.525024054524636,-29.855196564318998,-40.19700233587,-15.353177280664415,13.610090072976346,-68.48192046228974,41.70726689028217
0.176,-2.0151718308817816,146.24086327862753,-5.708127630439109,129.3521280261686,-6.637646219661101,-29.50636284363514,-40.043407025371195,-24.253002804674722,-36.161686226508415,-83.19640435388898,19.604179995870794
0.184,-3.389609762387041,159.13857965961532,-10.334878679191437,128.76656217275382,1.6147639599641594,-33.50336312953922,-46.98911451392867,-31.521521145634438,-85.34103327172016,-98.49182753801384,8.441628893001775
0.192,10.384808946113514,212.48759966804755,-18.72479923821908,77.07958457775153,-2.61505828472744,-25.47088826111204,-36.15837428274317,-34.56342233819864,-97.83896863965337,-100.22612805104711,-9.944939045545992
0.2,11.017793673516469,263.7114306161735,-27.094533157424056,67.40769378940396,-11.064253680934543,-23.602826831395983,-29.174341680632033,-35.57504773871024,-85.23431560825779,-100.85390481113387,-6.446215968429422
0.208,7.342509691456438,261.7879814467091,-23.229657612482008,110.00064259868532,-18.288501885075164,-34.00080936503018,-41.405984222409835,-33.41468125136516,-87.65779623243951,-117.08144843929779,29.380284559818993
0.216,21.933641104990162,231.7891610011364,-12.89942501437227,92.89225718259482,-20.911831758388615,-26.177006746756742,-32.14759636642684,-26.170465506600767,-107.71679784677733,-137.11357290012074,45.52172758955119
0.224,-6.744370867497545,235.47402429321616,-22.032964742256805,48.50592861433557,-10.118075268390342,-15.416799762992468,-8.631553557628928,-32.054072637164765,-107.76168525471238,-142.49687714738153,32.560322826837556
0.232,-75.54977731863177,270.74445055114205,-38.17447545304842,85.07606504189218,7.456679658342355,-31.377349298983415,-20.910697033177474,-45.19342110265776,-82.01262082836662,-143.4235700648019,22.722965561138498
0.24,-52.258062514288525,272.84628427973104,-24.085399675183087,119.12723876718891,7.573434679211548,-34.48260266134269,-38.995989655272666,-24.58796588252193,-66.27357064517179,-153.04231363538398,10.178939434059714
0.248,40.19072705210297,217.8712398521847,-2.5711823179683573,59.76185988097751,-6.504963471701374,-6.17370105037478,-18.62314699401815,12.172227046706524,-61.88004717437421,-142.46151038876883,-8.562578363170967
0.256,37.55701399244877,162.2576610556634,-13.120999839640211,22.374480714338546,-6.555651678936204,0.7376490572415653,-3.0145461807119998,9.378638268635243,-42.1903440252849,-87.23660338301524,-14.618265097054271
0.264,-19.1787513868042,148.70064210232712,-25.19806602741976,66.83467422649976,2.946517378917378,-19.358595335537743,-22.94677185733525,-8.358937455046467,-26.96107998603881,-31.99032975672505,-16.584596081500752
0.272,0.545094015905645,149.2698736294025,-12.717182118149042,70.95895513560116,-2.0255302158754436,-22.29595565633881,-37.982286787335916,4.141680908473658,-41.950542215437615,-22.171560157311358,-19.144215757160566
0.28,19.338979530058452,142.70497698945462,-13.05182149543517,12.043786759436022,-10.027912610283156,-17.780014977170595,-33.88617250642694,13.559247339706618,-49.097670333029946,-26.98824963156779,-6.284799394424902
0.288,-35.08454550600477,149.45889955607893,-32.672881377240074,4.568850180179771,-1.9464852041786707,-30.040000757539392,-38.177406603869194,-1.3251415938821562,-18.462857332638755,-13.893202671466161,1.3593722331405325
0.296,-52.636888595164756,158.6386968700272,-29.812628046999176,46.33773757429492,6.3435301792029,-32.7362987664594,-43.20124851839694,-1.3468179960664324,6.654791810737618,-9.34105055359046,-17.155399369717173
0.304,-6.4101198745329695,134.589119793986,-9.446104861906862,47.53479991492032,1.2977874876134243,-11.83821736356731,-22.715811245679095,14.06845340997384,-8.66166828948584,-21.840213042172746,-26.478316432394085
0.312,-4.693750055478221,97.95930403024141,-7.012545415880803,25.636233591631683,-2.1419651204510295,1.5656018320626852,3.3991282031009242,10.821789251245882,-34.26692634315417,-15.07361089856725,-9.368266874655935
0.32,-42.94373044876837,86.43331467769787,-14.855581725790433,32.04738271253469,3.077602220413446,-5.203790399939195,2.6734560977649413,-0.15152964001429334,-40.483343069510035,8.61848206733711,-0.6358855625849458
0.328,-42.31306637002198,80.29422370650391,-15.944335830668672,34.97327429328274,6.6416467665838566,-11.066005815820096,-9.102481350213552,1.1898142555746969,-36.20957990969217,10.041039218442636,-7.6145931893417576
0.336,-26.982486765495832,62.9602310011501,-21.246998916405385,24.730590174509242,8.763703690136776,-10.73521877437736,-9.28245502124844,0.6611817570643049,-33.11616116565685,-5.832522453734627,-9.55097215237024
0.344,-41.11061141037824,63.393006891251694,-29.721477617231816,45.294022675384305,16.101220819129882,-15.555519656143598,-11.59212683235815,-7.582669710988102,-36.015053547629854,-13.008759655138613,-13.038986480671763
0.352,-54.34924425970345,80.632318765906,-25.777478247673766,65.46842846495531,22.15808207216101,-15.533313851807545,-11.487466671704016,-11.909508231671223,-52.193426127904,-24.286031572513156,-20.946972484708628
0.36,-47.239641229372126,81.67846805602055,-17.953106320335902,25.633943612398266,18.904021264698933,2.1957488859034564,16.804788433885783,-13.70998234617953,-73.20354823321985,-49.22794447513271,-12.736334177466391
0.368,-43.738343005081624,74.8644176981944,-19.58567825706252,-21.093763093322014,13.305652044184116,16.20694375169416,44.37194819399718,-18.104503596876206,-76.78215805417182,-66.87407053162906,4.7780147357891245
0.376,-50.77449737990311,79.72750948314516,-19.802901683244944,-3.0532213546596854,14.560676618711819,6.509287538117932,29.314723076812967,-20.91707112770707,-57.768685318222715,-74.35944341205915,7.572376706150382
0.384,-51.43857619152456,78.61517987239192,-12.30427229425427,35.75491710827222,16.80973774109793,-7.165661116436727,2.251623220151449,-18.042977345164363,-31.692014512632323,-81.0799258277206,4.8406122807757335
0.392,-32.64076114280046,62.51873866774201,-9.581180566755803,30.69972583658033,10.958927353152614,-6.485588583348723,-0.7655260783505959,-7.538543144423522,-12.724834337477418,-74.27304817815859,9.321332754498906
0.4,-4.791240215980322,45.83700900446088,-12.837673887120548,0.24325515487305086,3.397825453682207,-2.815755223324838,-0.07567989964248635,5.787160206243693,-1.3880949773725795,-48.575770967315904,5.7015053581400075
0.408,-2.221513512781144,29.178972486818008,-10.47102806111581,-14.901364492320074,3.017148108172367,-2.6447877421582566,-3.8390187515623824,9.244918702590072,6.509047709127225,-17.18421522289518,-5.347587740353434
0.416,-25.80389952436815,8.142523916597657,-2.6126376247581544,-16.195975205547246,2.7159710402049253,0.2894243379184122,3.95993860048798,3.119865834290093,4.647349033032041,13.187770867979802,0.9176141656620782
0.424,-24.585973955392575,-19.00046821262364,4.0692044117255355,-26.743107146918113,-3.8182488563729864,2.7892870433277395,9.050123188332115,1.5921646820718163,-9.736960519532301,29.774839010961383,19.34168574722316
0.432,11.711642034436464,-59.79082092626906,10.93409488338296,-46.9055278520515,-7.04804912779981,2.2081428631061053,-0.7505867677428852,6.478301601669,-14.627820936830545,20.916762758831297,21.37161688616378
0.44,29.817205642538422,-98.06574028559936,18.888869012715897,-47.04486164745647,-2.360120465373343,3.1605759587821156,-6.797183163880984,8.17707309546956,9.84587996208557,9.373838118750141,8.965283713027771
0.448,16.31071240043011,-108.62273424760428,22.378950337480976,-22.525031206187922,0.8278570233058982,1.6856444856937962,-8.06451865123365,5.3637789341639035,51.30905289688411,15.410383702270298,3.825592674699016
0.456,14.967495589033692,-116.46118388047584,22.444843799195866,-12.027555531973002,-0.916767453089876,-2.7903132963979336,-14.753781782227207,4.672875528421371,83.23826743384362,20.91074580094618,6.523960191345157
0.464,39.321858366043756,-155.89176190979288,28.9938433306349,-18.74368450756159,-3.7573977528970146,3.032969868275456,-10.341742820835385,11.165523857156698,88.15822698581398,20.280914773220125,9.589188088373405
0.472,59.87335587674882,-205.8717911061695,39.990545135439795,-2.8353252954955597,-9.144913210211936,16.098783543167382,7.760367733618653,20.37346888001439,74.68639406719288,43.733594667668086,17.068667984744657
0.48,59.40727453586604,-240.68384560848622,40.87609246499179,21.71546180906758,-15.669107336883394,17.303416009512766,12.585459489726874,20.5703544882825,80.52660088234559,100.82655355586844,22.906787208875123
0.488,50.17682569334788,-267.76238222852635,34.51328958008503,9.522856075627644,-15.791213803816968,12.557653860732922,6.597975860802322,14.01090563125218,115.39241610662731,155.0842951939526,10.60955736814952
0.496,53.42796354397455,-285.9491944476225,37.86996234246334,-10.829014743308463,-11.899821068828333,20.108214128752046,13.936473015942314,16.38532939359664,137.99041786893383,172.6205988555099,-11.168485041825523
