time,C3,C4,Cz,FC1,FC2,FC5,FC6,CP1,CP2,CP5,CP6
-0.2,-9.650247187586023,232.58532258588906,-5.575473103866015,22.05032199848836,-7.968409364387636,2.77731416250297,10.014965267720758,-24.58212355786444,-101.91570378808034,-88.19067168712753,-6.8982771911058824
-0.192,-27.92006443478224,227.67091358399426,-19.747325781263363,30.24153929866455,-6.374281971454703,-15.806194265933442,-12.430598088542506,-37.63543338256318,-80.6806483695198,-73.14736231873924,0.07871227918310646
-0.184,-30.174630265955525,208.96609493753056,-14.576179763739454,40.4000363470409,-3.014406754166138,-15.449788428632122,-15.120391716492245,-35.376871283754326,-55.78977834357261,-59.707208024220165,-11.619717274375486
-0.176,-9.784601051766938,165.64913406519508,-1.9510894837821835,43.25635053919073,-6.073043621941821,-1.7260685848760902,0.6788083481799,-18.667839733038157,-42.80665458032795,-50.44576900862516,-10.670604250387836
-0.168,10.989772642671507,133.42260338046142,4.741227971075779,42.01232867179138,-10.561622609319189,3.904580703183274,5.139910848380215,-7.74081077886049,-47.21015292534054,-40.09070125501271,-5.352351475536566
-0.16,14.62916463428209,129.90832747033883,4.625087109519378,47.86171336167802,-10.705496548586039,-1.2296819128123029,-5.278120392264044,-6.3243628222859405,-56.73273151175308,-26.247696040652805,-8.833978419026971
-0.152,8.929318664678265,123.46330631988165,-0.8949318815275304,49.0090081508322,-10.748969515220232,-3.9358746199303676,-7.479569450910874,-5.044101687902048,-44.194265003457154,-6.615966474708484,-10.187019436274499
-0.144,7.500539219523626,92.96905024618388,-4.388060222690332,33.5993734926876,-11.979487741003048,0.9497483040446973,2.4584492176936896,-1.4681579772097508,-10.539370759674279,15.510232892727213,-9.673160979672078
-0.136,8.524045087058932,60.141037138782494,-0.6154830034280567,23.515711524272195,-11.539567749234374,2.5834401712042654,3.037760647857636,0.5489234651479231,16.618000944798908,30.8779869244222,-12.439272825193786
-0.128,11.095104590519867,42.98008427439539,3.9362239378322816,31.404318191861098,-12.308143239920499,-1.3296318873169302,-5.29283432316666,-0.6640579019252376,24.84931852228043,39.084112992322886,-11.089660733486372
-0.12,19.868340026266942,32.91310692575219,4.698083921341905,37.08105454449961,-15.678521951653211,0.4318512109375857,-1.9602302174953332,-2.223067508814154,15.285606332279592,44.69907924521339,-5.604836686061944
-0.112,24.22757393272592,21.957601202494423,3.0854557308237,33.121258098438275,-15.873310855629871,3.6325941957052237,4.126819168847811,-0.8728517102746082,-1.2223180723406923,46.86355417475768,-2.2542746419210165
-0.104,16.867006356831695,6.690936911466411,0.9412806010589582,27.94759505350935,-11.663965458882338,-0.1281939351983942,-1.7568234406102383,2.3034556289673978,0.8488593622851792,49.73354097006915,-2.4964340422957205
-0.096,14.599063916160956,-19.235641903899747,4.243567282112469,19.502852822825925,-8.774735234820154,1.8160340506966377,-0.4660029071779192,5.018650195642679,15.729757597386136,57.34341821965543,-6.553301323458101
-0.088,21.560591615765574,-48.319407327126086,12.243860104476298,11.909905561922084,-8.116714872345394,11.339319391129605,12.717775768302669,6.2151430392807345,3.2452015109175107,57.20211212157399,-5.5047188950651025
-0.08,18.562676435261988,-63.8377541461982,11.123412469433616,11.676451346640599,-5.918757691179177,8.917713222408878,11.502235925019635,3.1693847630693934,-26.17552517223568,44.52567869386621,7.289294341158166
-0.072,6.244587599241722,-68.68512427586431,1.7226045978666868,4.732198823973393,-3.070340758639831,-1.6872431679972475,-0.7431282495181631,-2.2244798081527235,-20.06312700697462,38.03045069248625,16.108071352979255
-0.064,1.400224094913786,-80.18448791712731,1.5703471289981066,-15.07101403853597,-2.040555148119224,-0.8352050758481365,0.04792618023161914,-0.1735695220410774,15.153948729878575,40.94418536045627,12.98113208208917
-0.056,0.5079113866742978,-102.51166536628303,6.930144003594286,-32.753908837323316,1.3333934891895272,5.032598890103292,6.253420657371434,8.732062320545605,36.06102562872445,34.94063331486163,9.684069630667834
-0.048,-6.541136357379936,-123.26126759191293,0.9211988691432589,-46.11326769014189,11.55445464911161,3.7551913998971678,4.596053256934202,11.091414449566635,42.52757826103053,20.90322488970908,1.6588759694457027
-0.04,-14.32432038936311,-132.1063732640639,-7.218625824503298,-59.28175463260714,22.371445043847032,3.066296876834485,4.710170904413737,7.906394102881638,42.24661180792167,7.618458949252033,-12.085219738585678
-0.032,-16.807690279381198,-136.93059591599086,-2.0045391460280273,-63.81017520547143,24.207060323186504,5.783784280717085,8.528592048350559,12.193027014147491,25.944602921973438,-14.918375851793453,-2.5037218750292203
-0.024,-15.97991414923986,-152.83457866267284,5.063718435148482,-63.02596536654484,20.388865540126275,3.906249975886118,6.137799861797921,20.857102584298897,20.654682492164905,-43.93802940742628,27.971319716795676
-0.016,-14.717549488796811,-174.9920379941776,1.853625919735175,-69.20431156225607,21.745002052127134,-0.6874397205257335,-0.6987990674366007,23.873367851780422,53.749061080947634,-54.8486691797862,34.17940918513148
-0.008,-16.734547198300312,-186.6145500833625,-3.603611536691475,-77.31474691613776,28.23103343183325,-4.2147037897671416,-8.456329787924261,22.726358979374645,87.3049406887002,-43.11222415782612,13.159514390415929
0.0,-22.871219400025236,-189.80403459368603,-7.12451833464065,-82.74687357929761,32.5790765570815,-10.86669144641339,-20.26786045956296,18.362443279982628,87.1110796519877,-27.013996035455214,0.656150839609922
0.008,-26.255242132611528,-200.34133919116675,-10.87781077313045,-90.41063379691806,34.91475079858411,-17.029685676025462,-29.597812562368755,12.8594416697025,77.73445490865105,-17.02201012609934,-1.441357392575984
0.016,-22.375188102716567,-223.02269594808396,-8.04403550505847,-93.71461090452763,37.00070485910202,-13.592756914854961,-26.31099359567827,17.60700893752184,76.20676917599012,-10.2179959537041,-5.049174469313598
0.024,-17.412823615444527,-246.4832637852717,-0.11116391492673161,-86.45843117865515,35.52284698221257,-7.1671456673058636,-18.518387992581896,28.839404506704415,71.42348050746854,-1.7363150460181378,0.2668279203811286
0.032,-18.665805261367247,-252.34734102669597,-1.9526670537625264,-76.59270275238927,31.950565201827118,-10.331540113485483,-20.5709074536907,28.982144951359352,68.52097935560096,3.4841862864690447,13.644276946136113
0.04,-23.231758591746544,-238.3484596289216,-11.528375511154069,-70.27140195186085,30.47829770982392,-17.70844412066162,-27.40242000670613,23.8905332398331,75.20878708652003,-1.8437664985627131,21.491369564328313
0.048,-22.159626098216645,-229.39871177224583,-12.62907039643329,-73.49583307338924,27.250829437227438,-16.573663379305682,-24.886597302389728,30.62002963030033,83.06722617720395,-6.446492929302969,28.776195903454386
0.056,-12.866193528800629,-242.92626292200768,-4.582384695329755,-89.48404173962933,20.293991709100514,-8.075142077691394,-14.273974752986895,45.101046782327714,91.15603368088853,0.12281856063734942,40.12019290223432
0.064,-3.4180340365614104,-264.65544678692316,2.902551111008693,-101.92352219136222,17.160417761512495,-1.0499489846176056,-6.897637208276165,58.2000075185433,98.95450128081936,3.9347157982580043,45.599209896241874
0.072,-5.056132703266574,-274.50957226786335,4.206824539493982,-106.23621973750366,21.1447772541397,-0.6090204296953688,-8.190918579178888,65.10843243993959,95.47157829890956,-1.0094986001149715,43.07177732167435
0.08,-19.858132546349406,-265.4218301486996,-4.661442266612406,-124.45518810120991,27.600527250831284,-8.090004491806274,-17.381985207475882,55.496809874443386,86.67577579807431,-4.162031025216523,36.25321971692308
0.088,-34.62709403359356,-243.14946694404554,-16.5745532237727,-147.04152975196587,32.724194395741485,-16.748698170163458,-26.598437490862523,36.1892617344842,88.30286610478451,-12.580920570983228,27.496418101284704
0.096,-34.811064213239355,-227.68722879373388,-14.496334495091272,-140.3173305775297,33.081816622429216,-14.888507455808917,-23.32600962934773,32.0207914233954,94.2392226024798,-31.578924008072097,26.545523614264088
0.104,-25.044245208873495,-230.4690158969962,-1.0688365854269408,-121.46528354445908,28.829029192098197,-4.762749845361175,-10.544214933617925,41.50910262694805,96.51507035079345,-42.25339771161564,33.27833626079678
0.112,-19.877569342116892,-239.91739292400524,4.736703039734266,-126.53150148595323,27.954297997662238,-0.25850449125705843,-5.856075205530749,43.208425908650455,99.77944873483196,-41.77888432412802,31.813074206952134
0.12,-20.865014414893928,-247.30855871868147,0.680173009491361,-141.05095808094558,32.386804385325135,-3.5551374802039084,-11.493467061561091,37.90222433286293,96.29049579314196,-43.40205614849826,24.343971441353045
0.128,-23.07968465732713,-248.17331807985343,-3.9891014849201363,-142.5050266019399,33.28796092665314,-6.766098651151342,-15.15077806463142,36.90547558168951,88.52080332404297,-38.487804224870345,24.93183044170272
0.136,-25.570706280222797,-235.19984345827538,-5.5284095849078625,-139.42390113536317,28.733145848836184,-6.7037359034683375,-13.974938596091249,40.37737431771324,111.45295445290428,-25.159210155009323,26.16669409432562
0.144,-23.280776288444436,-228.05710594046502,1.5057971524782483,-134.00872894812227,25.701392413147943,-2.091200127587771,-9.954685651774737,48.10586121723061,159.44699974349848,-25.58644518227142,21.1301287992454
0.152,-16.644669724435357,-247.01426758339989,14.059604630024847,-117.71765247140446,26.28213248907894,3.5489268640105514,-5.611943016169639,56.02179580360266,170.4952634361488,-35.10726110431269,21.670124821658323
0.16,-18.87349418023048,-261.85639789962624,13.495879802575022,-92.88876510468839,28.64789715272835,-1.1457828282299412,-11.685618945245114,55.04192540230717,139.83841621421016,-28.146134226347783,26.89422735827005
0.168,-25.833818123428006,-255.03386471570875,0.7141383886871521,-69.17232527364378,31.0464976857657,-11.774602732119615,-24.265914663823114,52.72505886612872,121.64844816294969,-9.763205057398135,25.368248043770944
0.176,-15.91608369994236,-256.8674991593801,-0.8452528998858077,-69.9924516412652,27.641966248380715,-7.38553118751729,-18.60679909568299,62.245615178115195,115.29168391814832,8.456565651441727,23.248669694677588
0.184,4.04507420739363,-251.9206715852516,8.25006979477718,-108.97660783709651,14.597671394077802,9.291442899085487,2.920729421254966,75.93581268818428,100.60533803742297,37.43210542199166,26.416826536239604
0.192,6.618227138792171,-200.09149374235324,7.870332393507401,-144.54829759432684,-0.06028444360258737,13.52791352134882,8.7991633238454,80.22780635518897,107.81431400886275,69.50809842333473,27.611850289628546
0.2,-6.013035766759773,-151.25146335859458,0.11484307026337082,-136.4868073121783,-3.850642387269506,3.368962003603997,-3.6890235739555153,73.112211712553,122.22307239235171,74.01188687153994,27.91972243132504
0.208,-11.913899974075193,-161.3643587279621,-0.07437177541747954,-113.52872192077857,5.1329356330920275,-2.132566855998948,-10.257647718577026,59.19943961072364,76.56054328477889,49.89940808032576,28.745742559187104
0.216,-9.656903641407215,-176.82667685100645,8.588608867624746,-101.8380830816845,16.88297462187349,2.2373899557138115,-6.401887893761495,48.44473132600316,1.606348825585629,23.451907675736262,18.33775756094222
0.224,-11.038849729703614,-150.68099363457137,17.99803429152097,-75.98668820369981,23.547325109859585,7.3623561819568115,-2.4724000587345336,43.87964695595923,-17.107714091818394,2.7842032082450943,-1.2192557371648185
0.232,-14.98421035696278,-131.63055480144428,18.702345074768257,-34.16620649518412,28.031694778733968,7.820867437358621,0.33693824667015654,34.04960871947164,-5.548996578365087,-20.287995908207606,-9.82684107262403
0.24,-11.542325156417043,-149.8825812240862,7.705016727958164,-14.014386074017988,32.79677625122904,5.2486632393767865,3.441613538980631,18.497095316057052,-29.72690054929809,-38.360010725569985,-4.038649804525206
0.248,-1.1315762228578867,-157.35100803885166,-6.235766442443361,-30.244838991630342,31.549574309751087,3.6227415583197398,6.126858490944243,7.813691016900023,-62.51278389708583,-35.67531098661283,1.2168227809066277
0.256,6.394958221666335,-109.39848162962058,-17.106205189123976,-71.26715184607966,21.054797844160248,4.316620042019997,10.609790511665638,-3.7171990865195497,-63.51270462556667,-26.96362023032307,1.4363721696183303
0.264,8.360660335244331,-19.98757022046618,-25.99814488806186,-115.94426881061229,7.750595366582019,5.354132739553057,17.043471819863687,-20.67307474458977,-50.468424441502144,-49.23246530625279,6.86704043362487
0.272,7.800583083249103,56.24115518843465,-28.02451530673447,-137.4415770030579,-1.462908188692528,6.0626099362934776,21.45079775555705,-27.94282769141362,-26.292299114131968,-100.98794922988934,20.8254794728259
0.28,3.7018977062102625,79.40345680082248,-20.38265161143743,-138.0090705495588,-3.6908852401263066,8.203787889230284,23.344514806675196,-20.24099606115902,25.063671727520983,-141.72609333096355,29.739161936202517
0.288,-1.2059416651056991,66.49147128050392,-12.85845432936962,-144.21186982173813,-0.7537359754516209,12.192048566682143,26.233040398845137,-10.666656828916926,76.50439047861757,-155.1256173755337,25.778969234561583
0.296,-1.3501419679696827,54.55890642791356,-12.328297183448937,-156.15880702985825,-0.020604190607694067,15.277048821441474,30.158742652481322,-8.787850232525884,97.87970570723517,-147.67437098332908,20.226957089064143
0.304,-0.9709474820759835,52.31980323293153,-16.051227235856405,-155.25832323425195,-2.9220833211530577,13.821066360601677,29.341573365922244,-16.994809730027242,99.73240038088022,-115.40770175564974,13.597298736883964
0.312,-4.80814126739434,56.363758489933296,-23.38404681634305,-131.5412278763232,-0.10798550918222677,5.831755891933787,17.28352469146195,-28.817077358754876,86.95540668147096,-71.3750107978939,-7.966375164671215
0.32,-9.673889642712608,58.674939211904444,-33.52030486827934,-82.06930081427315,9.38165512483358,-7.282550181590561,-3.783436061870063,-31.517783368281936,58.744904786558564,-43.09969121250316,-30.753571016360148
0.328,-12.647154171285699,40.46612574958627,-35.15610214591074,-29.508738866672765,12.572258426519452,-15.598459725013715,-16.58246225355264,-23.301356803497402,47.05365069990102,-23.950469603676762,-29.292122788768985
0.336,-10.487252201441537,11.24878603641098,-19.397416446649284,-5.035908165446486,5.769676936478377,-8.613738742167175,-8.400260518084147,-9.822789148413234,66.50290382471867,0.1118346497843552,-17.454749429347256
0.344,-8.395691456488038,6.960264161705464,-3.4118437358645815,5.245387020452261,1.7375230189638966,0.08548933973717854,-0.08440668869970014,0.658469023798772,83.21317520641502,13.585217758320187,-19.8238562365552
0.352,-22.856462281585348,22.791061511318667,-10.825227968168571,19.33723552145033,7.897438185276887,-11.446622883492232,-16.3907360585043,-6.466625480356323,82.43705421186395,12.779320667569026,-27.845238068655505
0.36,-43.74299156345989,20.855667653543566,-27.211829961885872,14.804456514867496,15.668489926233903,-27.58623929651414,-34.81715601322736,-22.88089897986419,77.13800228169697,12.534543388850377,-27.58807389786583
0.368,-40.84335835728704,-2.037099927356626,-23.181536749528437,-2.920820749541002,16.462634973458925,-20.768503942583514,-24.847162552741008,-18.3305110196396,62.82552563216294,8.972866941939655,-22.260083677542664
0.376,-22.625352768661546,-22.700262626528865,-7.104272856932893,0.08897339766892254,13.297568587427401,-3.981966399097475,-4.736712656729773,2.1754062482572176,49.0850067053376,1.4664325382529895,-17.29117931964352
0.384,-12.95580465714046,-36.62241751697762,2.388826737587671,3.1616198977011156,9.943396452821377,3.713911955147545,3.649904329324376,11.72690480094341,57.460516376886275,6.117716648169931,-15.653467617496323
0.392,-4.577533162403441,-47.66301005602785,9.898727638796286,-21.56444031623728,5.361392443983365,9.914231477743304,10.194922537930715,13.82245610841025,53.53594383916348,14.5222597528798,-13.062659489367691
0.4,-2.6242258098386553,-46.93700983008588,8.439256294455229,-37.75249252787425,5.044682227199644,8.98549398046918,10.01335279114319,9.855464342168437,5.008322943736847,5.260956338352853,-2.8755908936301187
0.408,-24.10942918568492,-30.381376851800763,-11.508516348097004,-20.498453451298698,14.236856854861722,-9.787547203843205,-9.593825725510852,-13.084459057094199,-35.38189885619728,-10.028632486280062,1.1220263389452847
0.416,-36.0003393616369,-16.228280297386227,-19.227992401494244,-2.1830480773122822,20.392603226425184,-18.92016960234465,-20.828272603778256,-28.684849227594018,-32.07176732219756,-11.493160754744393,-10.729727722549978
0.424,-10.214687026664908,-20.956088095002443,3.638630816647219,-3.6255173505608087,11.983932403721703,0.17093150486916533,-1.197496975360704,-8.942231301850198,-35.354214699709566,-8.747520845298903,-12.511096704631697
0.432,10.060153112856765,-27.757479264734016,18.59834311734246,-7.446727697556459,1.5036542021475245,13.614203302321195,15.293630653344014,10.778058080626403,-63.01370389704373,-11.876079258882074,7.059741705358887
0.44,-1.9692014510716311,-13.431405556535458,5.442968104660705,8.156543408054457,1.004346314183828,-0.2780550425892284,0.6398198115416769,-0.3540049956151754,-70.72244250721235,-8.742079973197466,17.764952477990654
0.448,-6.846907298475134,6.281220547784818,-1.8302536133563923,43.267819881966254,0.7355655429841158,-12.073008558085487,-15.320483187814114,-10.428579561538042,-56.522878689218,2.9458682770552658,12.068778925653243
0.456,11.091063828449693,6.219499844940167,12.73336673235995,70.41529127364245,-7.005514908556007,-2.266158474175987,-5.511239098242941,4.227295904788426,-48.99533897129228,8.484598100872585,15.05396193432523
0.464,20.64255314175676,-1.8221973832128666,23.73072229462477,74.36609125897691,-13.299798020683253,6.301879034969923,4.435232386988638,20.13159116677065,-44.50344575091642,11.338749333265538,25.062146225936285
0.472,14.28719743826495,0.4576275574493514,17.576621243796946,76.71411496955943,-12.559604266970672,-3.0917842124340855,-9.762810056600422,21.524822323280123,-40.99146721170616,25.989761700041292,24.401367106372863
0.48,12.217603080849978,6.60374304277083,8.369229379273902,84.28185090047025,-12.283528426826047,-13.952354872199747,-26.0933913790523,19.47169807291436,-39.995494142670495,47.31586017502221,18.930726756242226
0.488,22.999225434954607,8.29406406008891,10.927784287653472,78.39724817426448,-19.007446035825566,-10.74929425766949,-23.609335827938263,21.765985494752428,-21.0238027278437,70.37552905000999,14.373882562240492
0.496,43.4894204588896,0.35230279265299713,27.44662618782815,70.57343412694438,-28.085379016259935,1.0216256599131293,-13.667079542980282,29.243332649715793,-5.475288776762673,99.17324425773185,5.067999356118949
