time,C3,C4,Cz,FC1,FC2,FC5,FC6,CP1,CP2,CP5,CP6
-0.2,32.74728875693082,-164.4623538348923,14.772646761395153,-413.34837848335775,-54.903180119182316,8.941981105694246,-9.659891613974601,35.39566780284719,25.48903228417335,301.84402106181,25.89383573536428
-0.192,24.980411472347193,-128.25574939745997,7.363078310153691,-393.7183068760734,-54.45815382086971,5.413251483781909,-15.144732222356783,47.966652994910085,91.42530633129853,301.7910972609343,13.420587926097292
-0.184,33.33130630725515,-134.04362772099716,22.619608113268708,-331.316795129979,-58.66229574132786,16.303749614933086,-1.27722872087964,63.16704537304643,147.30040347151143,301.5479737743606,11.975470385601957
-0.176,32.734746283775785,-168.253568827051,25.082016535472448,-270.89275478307155,-58.65016903061988,17.408709187065693,6.251892077952895,56.19641778987826,142.2246581799631,306.12798200191287,25.235753175390297
-0.168,24.522022282105635,-173.33060135756793,17.086761064247835,-212.8237942027646,-56.54794527622489,8.414921564497204,-0.2998147459977547,48.499308338282574,90.27533191917722,315.9921878769197,38.08332567950125
-0.16,28.65270302262113,-147.4699372754388,22.83690950226879,-129.62714995440976,-62.97045006172709,5.041646631863236,-7.719583928578198,60.68904840785012,49.614607698136105,363.33020046633135,35.28486158324668
-0.152,39.76694005408157,-126.82155559369303,25.687383192390506,-62.824213597503665,-76.10767493095751,3.926866525678531,-11.019605716049004,67.97345396239042,35.899803721408674,442.24085087452596,27.787067673137013
-0.144,38.84182422464126,-109.43718955771324,14.340767300709857,-52.401558630047184,-83.31851331074984,2.1933096613743523,-7.264380650658366,59.19890808501637,15.731598427263295,482.9118582088286,29.72744570443157
-0.136,28.036859592621465,-85.48940514760764,11.568623018250465,-65.18472783348429,-75.87715962852471,6.874205529219893,3.3816714749869483,53.93658174527101,-21.02486205681925,440.48614162249135,30.340033285505037
-0.128,25.126894334932512,-67.49521827160181,18.01547662161665,-68.93924369862343,-54.837822882843845,11.304879134286503,6.500376349313911,53.06396815505051,-46.20038993554254,317.82248544741935,22.95261514446563
-0.12,32.14707209402967,-50.399633992011594,13.792147228105394,-67.55982841108009,-25.71133811718491,7.1028816413863884,-1.9015635602799257,42.33060181055544,-46.32289232528779,128.01890462918513,17.223917000719357
-0.112,29.047757553698847,-17.014673149951935,3.8601016893721347,-54.52400895974664,7.129346934772075,3.641120199150914,-3.7684317977949093,21.147007285080186,-39.80068931112462,-80.94155702098777,9.622292470815418
-0.104,7.236742945795122,30.135676498602663,-1.2190809701353102,-17.376880840143752,35.173271795858064,5.4388958744008224,6.244317837830833,-5.5904672505486355,-45.06527349824687,-236.82830984513313,-2.3778671327717937
-0.096,-9.260472265358175,85.74955816129538,-6.3612663703233565,33.27694860879747,47.47782196576427,4.364122319793173,12.860093694048226,-29.774442226972567,-63.518835746880555,-322.5984840561944,-5.034766895205441
-0.088,-5.040869180343688,144.31251202697564,-9.870689084577213,78.03369479162129,48.14046667065421,1.9303292456540773,12.110894569806646,-40.02718475162788,-85.04768064455921,-369.81341827390486,-4.914275413121607
-0.08,-7.589806164982107,184.71674640859996,-10.780453566269568,105.85064788239704,52.15503741226568,1.2572527815275563,11.483702271962525,-46.74804393577224,-95.29638398278716,-395.7066843385826,-15.775697265143306
-0.072,-32.29547516895622,195.82384303504475,-19.85578654214118,116.88324678435443,60.88608182127465,-5.538008986987703,8.641064837972811,-66.50701654292523,-89.74860386110014,-416.45248087794266,-17.911871047625038
-0.064,-44.71435591239631,187.76336765160673,-27.25481683464759,124.97958488884038,66.59438125962441,-13.43129886229692,2.7972434555953143,-76.44408744268829,-75.93345976266978,-456.0879397341338,-3.4356360296859094
-0.056,-32.7234869357601,166.47233149392852,-13.894122889247633,141.27820983052317,70.03698538584356,-8.063053817710836,3.655642984577272,-54.052778799337275,-54.17099481941606,-491.10267671849635,-0.3440552330244449
-0.048,-33.50040553766111,140.87039713335122,-2.1057665100572858,156.65321237926693,70.57601929012584,-1.926544926535406,7.358789832602326,-35.31513498063288,-22.269454045506002,-465.4826160196889,-8.727485504136341
-0.04,-51.56300624972923,133.21145686900203,-18.802287708219602,161.17043328337502,61.40446539379926,-12.892573804763787,-0.3676343357138239,-49.69081411383223,8.242855087192165,-374.8445675923314,-8.476564966992099
-0.032,-52.10632771401448,138.32252386290708,-35.600798144940676,166.54790238516767,45.28314583489939,-22.352490503232495,-9.458530417160251,-60.30056917893888,31.76348849715741,-255.78105966223714,-17.05322877871953
-0.024,-32.935498823247734,109.3226329379692,-21.91008269624783,192.23188782485715,30.14244983865008,-11.190972006010961,-1.668604466097793,-41.40781610329886,50.061640594483706,-118.76762211482871,-44.237907476651095
-0.016,-17.817851440531918,24.28073313889925,-2.6141482963968037,242.40696319878953,18.491827303144127,-0.7562240044294769,7.195578286853189,-25.528305502408287,43.36267902938092,26.834693696062473,-57.73756077217747
-0.008,-19.45487942192928,-66.23421638672266,-6.46483575212289,297.19770650410635,17.49511386683563,-10.63060194799759,-3.6884893443666593,-33.11421102503246,-0.3049053971698812,125.85339454376798,-51.64255985048581
0.0,-38.17013410992586,-102.27404870547362,-20.291383971924688,324.0272030381885,31.05828814670124,-22.776353640342403,-15.242776153595182,-45.06378989616294,-46.686979854035876,129.60562478991207,-49.8777293985359
0.008,-53.49215277433352,-96.46985180456727,-24.626144555898716,315.6051137856492,44.62393853565476,-20.99594902144524,-8.563452498473534,-48.54209662905884,-59.02023636198336,64.08005777182511,-47.61888413806531
0.016,-50.81848246528671,-97.2684744611269,-24.437388189906148,299.3094189330147,51.97560874259957,-18.517224226388926,-4.977422284541519,-48.83148453341731,-36.71155774706298,-4.084773495177207,-43.90526641727537
0.024,-51.25864715167676,-109.84184961829993,-28.76140536141798,287.53479072791316,66.70649295947271,-22.876369709451062,-14.988789505615232,-50.269483429726904,-2.481351793266239,-53.94560975217067,-61.075149382687634
0.032,-56.38104424563476,-118.46373165285291,-29.663603403401012,265.7889500497429,84.88021832343671,-18.37698262199892,-10.74510470868991,-50.08927248358547,6.147097944005056,-116.4865542486627,-79.93070155463144
0.04,-42.69965665669139,-128.19604653466928,-21.435523242696263,238.22655538293094,89.932309532804,-3.8942492944231577,10.957539869115227,-47.5369718367669,-27.06314031062138,-197.418253691811,-65.08322545166422
0.048,-33.74347172893968,-132.71192950901641,-20.123186037811795,218.97231254770583,90.55380910868007,-1.9686661366147793,16.85886622232186,-54.097594050439945,-67.05927251857125,-263.63790528539823,-38.19308921798012
0.056,-54.4435682840828,-111.49615797871829,-32.758306227462654,197.6712540716966,98.3556572308757,-14.08830277526164,5.341099153196794,-73.51550981796309,-86.53125025998796,-310.94587502159084,-27.423735397307837
0.064,-68.69436381962544,-71.2723567346043,-38.98959582332889,170.7962322003574,102.88139145898566,-18.73435214087289,1.6078312195777635,-84.98667006766242,-92.54206520697484,-359.1925124576379,-23.71578985348835
0.072,-60.52114861998648,-32.904585370507185,-32.464104560971506,155.92535794641566,101.61609055542095,-14.780468102023974,2.6388576925233416,-78.51917039365016,-77.69453232571233,-399.8063013498044,-27.201173362868257
0.08,-57.67378445371112,-7.616951108534862,-27.808933998052165,148.35184404123154,102.93773449004489,-12.593028791182778,0.9238845741734865,-69.4824871538224,-44.67516750300958,-424.82904800526035,-37.063217705648206
0.088,-59.313554108137176,-2.7826814028200952,-23.842316354721437,130.12502847472553,102.00273074460338,-7.779618510458102,7.617720561863172,-63.015737336331156,-28.687932124843925,-443.9981487635038,-31.26089680464692
0.096,-57.26643515715756,-8.381442301498614,-17.40819723623291,111.91354252969408,94.88169583898237,-3.088246638171792,14.125110773948151,-54.43691519265102,-25.94392748038371,-437.63247984194305,-16.59847265653175
0.104,-57.62780062324235,-9.800333244567053,-17.508831245907345,108.50758607487195,85.35223069651876,-6.646114703259873,7.642642369833415,-48.22050922955626,-9.04996586869762,-383.7201949259758,-14.373730479199118
0.112,-46.39040529563738,-20.888910782236245,-17.90462437436298,108.26144588708729,71.12488434625824,-7.8169472529796105,4.858892668808393,-45.09922128323639,-0.35161651116937315,-308.2511132925742,-12.90778010488318
0.12,-31.302261173768464,-44.03347546416408,-12.45750992961123,97.5976731409615,58.627328765364226,-4.087777193514415,8.049811089790522,-42.74793910659346,-17.39504082393646,-243.49129200197825,-9.483715061215666
0.128,-40.167145346385624,-51.2525603353856,-12.050903382146885,75.73578847808145,61.064831186474464,-6.395530220971053,1.6255629870652872,-39.848894665772335,-35.310885081618196,-210.61934147651823,-19.828232812623998
0.136,-45.24881364324384,-46.196258485131125,-12.390147400002483,42.474903708637235,70.25552186760922,-5.281032188220093,-0.9407229034151158,-28.918608149827577,-45.76841352113613,-237.46352604984287,-29.51780784295413
0.144,-31.005060260255124,-51.049605433074724,-9.770170088241565,0.4904298023278567,74.9105313989123,1.2864247392108012,5.722760290364849,-21.38640796684864,-43.20169537845917,-306.14875053977295,-22.87044843097506
0.152,-43.27489011496923,-53.66371762969913,-21.4500350520174,-39.69527780285507,81.15086218775772,-6.660183447077559,-0.7890858081341651,-38.1182832711425,-13.268669162034119,-353.71466920635595,-14.292380215821627
0.16,-66.29592726359698,-50.47428693579184,-34.66362960884332,-64.73253568064337,85.52242673803362,-16.962118023393128,-9.642637007481184,-54.32488757587195,6.339405198896387,-358.6101791523035,-10.912645631812522
0.168,-48.375985889701596,-56.955224116865764,-23.065025593674786,-61.07820727019003,76.57198978640085,-8.528195690900212,-2.014120277929194,-41.8754367076714,-18.865315832513456,-329.5442525146841,-8.117857206576986
0.176,-27.442538863668915,-56.350852234737005,-9.258439965988023,-28.32156725242913,60.67651947024953,-3.0890593035476357,0.4958423391629875,-30.690617463490376,-41.904357335999705,-262.42232161406093,-7.039543642539329
0.184,-31.260109379084746,-40.24234799283373,-11.022900975685884,7.38595888474081,47.26486831888341,-7.560690070249337,-3.1056082695195717,-38.267893052732084,-31.784513112123733,-184.0887142870856,-8.49819650484741
0.192,-20.620751554761934,-38.227123073963305,-7.387776523194369,23.206408709546896,38.77747007558478,-0.36595663379809656,6.945974200554302,-37.58737193440513,-28.288158434071594,-136.21165338489624,-17.424613209502173
0.2,-15.484209761048412,-47.10880190375897,-5.338885550940824,34.309675196921944,40.15383944406284,0.9819045876621855,5.890943837499154,-32.087113452225765,-41.09804791368131,-115.93126471499669,-27.632332340578888
0.208,-42.69310747962224,-38.53353528905613,-17.684202493359777,55.062290135144735,45.39287774039101,-17.131416797329088,-15.259403539840134,-38.24940516067491,-35.975653049027585,-121.71199153059213,-15.944905377125592
0.216,-46.4992831831511,-22.499077281425016,-17.15501172440696,52.90378391805756,43.23890473720587,-17.470979204083662,-12.510063839202918,-36.63893635059806,-9.999793878587855,-170.09392667476504,4.655257940817948
0.224,-21.686351130227564,-12.342780999530587,-5.221027453099784,5.385630903052051,42.098875894898626,2.3785590742607914,11.334449390077394,-26.935753975311933,16.81892739451341,-230.5197635779264,-0.020187645200721614
0.232,-23.782931489570704,0.28814058910310464,-13.010689110002572,-42.184875420323216,48.99658728573353,2.184995384077175,10.196721545547941,-30.9047254573687,34.06486253052529,-261.43300645222996,-12.464653077940184
0.24,-34.35670646593441,8.61160430292636,-23.831172321823054,-52.73282008943673,52.4855639079966,-9.687367468319371,-4.942304564625368,-34.73938843626032,33.13812830518442,-277.3744407065527,-5.2185788427283475
0.248,-25.368711789133013,8.683388274862937,-15.163782265412431,-61.25362107020616,50.10953583695814,-3.5335520474118254,1.8636033698618373,-27.585582663723457,12.918715350250903,-299.34465163954115,5.005856937847139
0.256,-23.583779377253677,16.105569016422457,-7.496497829797518,-89.97830739259174,49.2129545286887,7.389613105502049,17.942905250526763,-28.28111420704302,-14.66786065076946,-318.97555561868853,9.249508925949623
0.264,-26.702068384587943,28.559319496652957,-10.064015408146252,-99.37484533072225,49.350591235494036,4.423293882323591,14.814006140518266,-32.99783423182288,-37.382633909416306,-329.2342149317719,14.56710361740534
0.272,-27.475296473200075,34.00883689059428,-14.753622259353046,-81.99766839071414,52.70459899379583,-6.393545726572274,-3.849701522933084,-30.550537052580065,-48.91995517737109,-323.76052112288534,9.232632334275124
0.28,-45.531449293708434,33.1945285296734,-24.672355153017175,-89.7912863789778,58.87893527922638,-12.496150702015765,-10.456021066917637,-35.33648735056139,-54.045999808929025,-298.86267353436205,-2.274116905954578
0.288,-53.22594371238224,18.768830909085345,-31.744379843897736,-134.6880961039388,54.59475252773181,-7.60657136546702,3.044905104250617,-45.0062419813483,-64.17513037456133,-266.242339214648,3.3684864602902853
0.296,-28.901566866905178,-7.209688661470668,-28.185362476687903,-170.1227889078869,40.90419384755582,-3.4431531818247687,6.590736450979421,-41.84810953010042,-79.34106931177108,-226.3980749541605,15.180356093892218
0.304,-15.201072251202005,-13.303367947956556,-23.440070837936616,-171.4194003195692,33.192951986436555,-7.334295040803232,-6.337768460171609,-32.17294136508421,-90.89165843044505,-175.08197435053543,9.503659046075867
0.312,-13.238302775268169,7.3594118816661185,-11.834782587207473,-148.0782975513023,25.871104361052833,0.4516816369645318,1.5802462459594362,-24.075472458142183,-94.98297252676302,-132.3483746359407,-1.0916652094387245
0.32,6.3098646095835775,24.435353670188512,6.616112984311232,-108.21681963322526,8.61323577425839,15.134564872048236,21.611587199506864,-17.39780326408131,-89.79855006131159,-103.73420019214105,6.712208252711716
0.328,11.606547870386485,27.57964368473551,5.709048925467281,-69.36812964013859,-3.7121075157138756,5.198690048371663,8.422100419402838,-19.522161439342987,-73.36836160902033,-68.36231420336502,22.24733501822161
0.336,-5.21190266643882,23.010673555338407,-4.593364501163868,-49.331708862300054,-0.762956922519401,-10.255481348551474,-13.384422265008336,-21.573913886461813,-47.13114789818183,-32.69951978400525,15.287401863483124
0.344,-0.9637333754982191,4.108125630600597,6.807105659233162,-25.875238733243076,3.367654484597113,0.8208284801428968,-2.5464248206204565,-9.13342028219593,-19.304870980055107,-12.677467607585546,-8.127830137499373
0.352,8.763494131478716,-21.660645460159664,17.610614073935853,20.28064619236257,1.2219524703728064,8.177750750160664,5.971630398087401,0.07559578370242433,-4.907761166291308,9.65208572105056,-12.147467507789644
0.36,-2.0526306608183917,-35.00534310298249,8.279366653345331,49.19773621511766,-0.23727870065265885,-5.535758228271452,-10.347695515439199,-3.434556231008425,-5.458992026733184,42.741567241844045,-2.5616534363366776
0.368,2.382880573088017,-44.78296955708465,11.059111078040916,36.3408394301876,-2.7395467894907726,-4.369357944819745,-12.113627568841478,3.918588585137367,-0.9203592289634309,67.25043532257858,-7.182723131116588
0.376,21.809222030118097,-63.54229522326471,26.547685346406098,29.048772354163773,-10.748887869775324,9.010351122337894,1.3332553414349302,20.787619326507027,15.513655129435058,86.94339822480333,-8.153518197088454
0.384,14.632624960938477,-74.17266462218527,19.397871847355226,47.718069047859615,-15.918642405651937,2.3332296841238622,-4.003386605009412,22.040104357628284,29.998864698914513,120.35387644305202,3.5815943544039452
0.392,0.1944233445252123,-68.67256064436299,2.3054466227046406,49.03698331170701,-14.308313818128461,-6.690307271939952,-12.070328347096435,15.367726290395986,42.01622201073838,156.1837928174277,-4.33955993458341
0.4,9.270760747975832,-66.14300832901891,2.6365752401071076,33.797644559411694,-17.43935497620678,1.17256478153557,-2.4598476826253886,20.231449817197117,55.5829984341869,180.6101277724791,-18.137118141661087
0.408,14.9817262497408,-72.13166897273706,4.816583489661619,45.16984099185416,-28.3900942514833,2.632414589216163,1.2226462169145005,27.78392414012805,57.416157367581796,212.27400282517254,-2.5170847798064795
0.416,5.812497236957698,-76.28470561466663,1.468660940267372,71.09889778321207,-34.81303183678193,-3.8239401051052906,-4.561992570035345,27.622157662505806,44.24046769603367,258.9280974622186,8.666751400621816
0.424,8.772680912418673,-79.00429500022845,9.624098243692034,85.01575073369163,-34.11947087634083,2.4334675929244822,1.3606609518901422,26.832582540239446,30.14668355546927,285.0883895023628,-7.944090653133946
0.432,16.310715378850013,-77.58292580800213,15.577561344541762,100.33197011647567,-33.32693514256156,4.950618318664851,2.985467475902143,24.99940248721828,19.49216641796222,272.64797424506395,-10.81813475662912
0.44,1.5648935699316548,-62.71031463328953,-1.9847925516990943,99.44871588137848,-29.0804122709351,-11.4738880857463,-15.194874481405112,12.896186511551253,15.668249519938765,252.0619120596227,-0.4796454889200966
0.448,-13.538276228456361,-49.85550203851475,-16.83199873530712,51.38873356343716,-19.158922534267184,-15.28153615994465,-17.235688839394655,0.3569976188431677,26.99438983719775,226.7219605046568,-12.683136575939791
0.456,0.7340943102090395,-62.828690902741855,-5.106659089208576,-0.1950127077167257,-12.527279240721015,6.248958449125839,11.190263929144733,4.363948448060437,39.29736820725921,161.0300081868928,-20.158526803953254
0.464,15.20466276912037,-83.23513914991207,4.0164470120668465,-18.01700668326351,-7.783410292742211,14.93270076854039,23.26709101188814,11.66178853228347,28.577097234515527,67.26287187114997,4.291589371231005
0.472,0.5473048414874683,-67.98402401583893,-6.50878621352324,-34.36254986417047,4.759793692566825,0.44922022476638096,4.891835917700745,3.3477712225573337,-1.8907170399889626,-15.613110295815709,20.962813876788584
0.48,-11.016952761419134,-14.729945267936145,-7.476712870589313,-39.27110783834419,18.840083494463183,-3.058029341645521,-2.5515693994075517,-2.6638125060546565,-25.679467954640884,-92.44447080809478,7.599317788377023
0.488,1.270623076849816,30.17922456159941,2.8838866577297195,1.8234511619856961,24.080278781752952,5.085351410484007,3.370308702397465,7.514052298517204,-12.983201232665078,-147.42775409537435,-10.452375081925918
0.496,5.297938322536119,28.51008927071085,-3.8610505098997128,29.23866363395972,23.218612545902044,-0.23007724378427105,-5.423838240947103,12.076166089629643,40.92374539618445,-123.30096070910419,-23.256762736888994
