time,C3,C4,Cz,FC1,FC2,FC5,FC6,CP1,CP2,CP5,CP6
-0.2,63.60818893877049,-209.6285001565829,37.25303287451369,-80.3331202127427,-17.4895206830239,7.4351738370633935,-10.008228292204432,35.228615812992594,201.42857391216785,18.34184706663856,32.15371016405425
-0.192,71.03165556074032,-206.64798786593968,35.80304041718497,-69.8169443999912,-23.61708441684578,5.5983391208216045,-12.151047565007074,37.651934851605986,162.89015617480212,41.484023143429596,41.007616604370746
-0.184,54.402426979687235,-156.988169109794,22.812623290577957,-77.31115711639197,-32.42264623031851,-2.743641102550608,-17.87530872865822,31.853094364800413,107.10760178637706,85.18220362221,52.1248585149381
-0.176,62.71212293693177,-112.53348378576194,23.95813144382132,-86.43688756097929,-46.54831105558812,3.3968423405972463,-7.796369278382678,32.14302101562074,59.062527541056355,123.9739175377744,56.317313409510064
-0.168,77.92180347926997,-105.80459038346416,42.651958463414836,-63.9558450025821,-49.30945329374529,17.974635298285122,8.954031642945028,40.61942369112256,33.9714598342946,109.53603553706344,54.51407957375116
-0.16,53.74034447243634,-101.21059644652462,48.258168784055826,-37.111188251109375,-31.717402609777846,18.561653364009906,10.378455546836816,37.01933130830733,28.19028290435016,54.791048630702505,44.863139214078046
-0.152,22.962051029997102,-82.46376018483012,34.028051250459754,-30.183671941411365,-10.832823719805038,8.32340647303734,-0.7544654715997365,20.413578476651374,30.03575147978693,16.417107243544027,22.003436047858038
-0.144,29.39785562190074,-80.44096975085147,21.373056309770735,-24.14349483936119,0.7579050503648496,3.813638159997384,-7.963239979489185,6.3827934277340495,30.299332301955417,3.2205761499195584,-6.8608257228124785
-0.136,41.63641259862661,-86.4905756924193,14.848206963189124,-16.866116319447663,7.68078158624819,4.565179173710016,-6.8569921047504,-3.284324793565756,14.796683704342152,-12.959185809685128,-22.074709844296983
-0.128,29.62832652773041,-54.84737495394581,6.784356568754291,-15.604527750678562,7.907050764541177,3.3679911883293556,-2.2672723047329466,-10.327813193835608,-25.41835542626766,-22.358058454309262,-14.054765386082812
-0.12,16.849620325296332,7.090880433777931,-1.987608340113175,-5.9144108810114355,-3.1632882666856057,2.9202353264486827,6.025736811924577,-13.54194421559177,-66.89190584696554,-6.296899151877834,4.5370959637730355
-0.112,12.194061633032126,55.16394437268461,-10.839460591299321,6.684830435639701,-11.94540777491914,5.4844326884994,18.228642094891363,-19.406647817280085,-80.6354760847313,-1.5362911946305033,15.905173471561874
-0.104,-5.063222525420257,85.2192972084433,-17.721816548821256,10.773961303621476,-5.922700459201164,4.112937915079671,21.81443537014717,-27.33019657496362,-77.81381999216444,-38.55398154535926,17.14315783997857
-0.096,-29.655863480826536,112.64346404039115,-17.039290813668995,28.373599767059186,4.925670128841701,-3.264303396053001,10.57721096465291,-26.563505229150564,-78.29162479970842,-74.89784699212673,12.900795090293691
-0.088,-35.898086404067385,127.24461783476457,-13.255858304648713,53.91597054004352,9.049530825113603,-5.534153551293625,3.8689579838791865,-19.430347302132994,-70.12874716979276,-76.91614272253662,2.223136414528336
-0.08,-23.179704797622406,119.21353318944634,-12.03236152221138,52.18154174340221,9.705018204203533,1.275070280412635,11.033218751918863,-14.802333176198374,-43.223175100364806,-72.14621825534817,-13.024839219957947
-0.072,-17.278742360020317,97.91841722151052,-11.668981485962075,43.26588094523367,12.466365791431654,3.112480617226723,10.869863052456383,-12.209398017938986,-14.96830086750037,-65.2031987574189,-24.958019713661116
-0.064,-32.091648306527425,71.02687540152709,-17.231319101658368,52.291050052623916,18.119306354976715,-4.814220529896628,-0.2766414698165114,-11.78601416597903,-6.344319647569865,-30.844194332555023,-32.569083608549285
-0.056,-44.413825258281484,45.18832930732206,-28.045021538959908,45.70205084283609,22.684801958455523,-7.695046992224143,-0.645367924902112,-12.052104155086438,-23.73200132008075,7.182951286403979,-37.16546161319473
-0.048,-33.21165791107924,37.01595679322955,-27.574050258190788,26.775075204662837,19.563208804325768,-4.067093880435783,3.0224519785367967,-5.957324213260753,-45.70920560387939,16.38664901350273,-34.437442337790785
-0.04,-26.260237229744146,56.60591016174681,-17.343616261486076,38.69095297534033,12.964421520122645,-8.059827475406554,-8.605979732722162,0.466988110537446,-36.52015075525711,13.189818341093018,-28.834930194499275
-0.032,-46.43540674645116,88.14914381149264,-14.538828538441091,52.79864815641998,14.019756866694797,-13.769066364327173,-16.62780254177238,-2.871067905395434,-8.371843128679453,4.860448194024944,-30.338726396427155
-0.024,-60.002214718431674,100.98638903831956,-15.61883346906933,33.587754240775176,19.3068185650519,-8.041978363359359,-4.787082644529037,-8.078706395151452,-9.572636636336348,-18.683169028151553,-33.29962745356135
-0.016,-52.145022642126825,84.95234663526027,-17.25282893636915,22.20791879989027,21.003678635851973,-4.367784760469647,1.9627643063992677,-11.3804209108662,-29.956817658824555,-31.944808999034354,-29.746406800577752
-0.008,-58.519845438015764,61.07351743270082,-29.276229119396973,28.215234419478662,24.246585644072624,-13.066347684016087,-6.134269915682835,-20.023623273663556,-26.549228509934174,-20.692489216416377,-25.971958921955174
0.0,-71.92939228580478,47.563385447496664,-36.34452153544589,12.212894848679793,28.567737809613785,-14.5185516834859,-3.9857005503386467,-22.733009719311912,-23.654761091075784,-21.534141306857045,-22.35671509532904
0.008,-57.0303462107214,45.03512201313093,-24.71350593760378,-2.4815714864454446,25.256811301313718,-3.0273551690937377,10.025251896144843,-12.358163218937545,-54.41117300350103,-47.28413868061193,-11.196380266073284
0.016,-50.0420684651032,57.71262308824175,-24.93505659436374,15.016388850241286,22.243507060764344,-3.219342708245008,11.646447709198535,-14.768162333322726,-71.85146276646242,-65.83627090308657,-0.4422647054307986
0.024,-86.56084431268359,84.70322497908946,-46.44505631743209,26.63452007762868,30.331265786816477,-19.08418422608914,-1.1638245911708318,-35.58776730080086,-43.77310023944831,-70.60858675562908,-2.9964561067514754
0.032,-109.36563777212244,103.59894459015172,-49.68041163918724,21.80913482510517,38.43399717742783,-24.796240140860696,-9.08351079816228,-40.02821333263306,-24.439370567128904,-81.33698115536781,-14.20893822447838
0.04,-80.82586550717662,102.01906314581788,-31.999928945755094,32.215841794060665,35.78128335703005,-11.685964222331217,0.6604041015669776,-22.751033235217054,-41.805431548242524,-94.02468898714206,-22.20571351705359
0.048,-51.4653732067486,95.4503752864832,-28.00595910549635,42.12784058386333,29.00275217009483,1.5527039190202745,19.09412423425294,-14.148892593936678,-51.100572302889915,-95.89271373260317,-20.65032754560399
0.056,-48.73186290328839,97.34064126171839,-31.528001268631794,39.08755787599265,23.483445349687866,-0.9217228029156354,17.87946545794609,-16.731401823373336,-40.28392054576354,-92.70983410071554,-9.937999173499279
0.064,-49.441750605768945,106.7716029182123,-23.474818522217397,57.036576696583104,18.974824626292847,-15.365911148712888,-9.523383764008589,-14.739123958153153,-39.59932575929689,-87.91239745842202,-0.5165644460016842
0.072,-49.74068214219651,118.48857684501897,-18.501722947772397,82.29614005425366,17.47809692484636,-24.83668760656605,-28.35237820275923,-12.991020621962097,-37.02572052116415,-77.86570495055408,-3.088142470023901
0.08,-48.56614548166952,123.52338654166009,-21.687350007766078,72.87631358435776,16.961321591962882,-20.915302599035083,-21.91575613671952,-14.186794851752754,-8.908596659604518,-68.84134984174828,-13.83607806216001
0.088,-38.03511246711118,117.99115847264122,-20.196481384633685,56.53604739317468,14.258198688612325,-16.267586245076497,-17.926064429986834,-9.257628146001059,16.940950530371385,-58.63529719618092,-21.887232637709563
0.096,-38.76355536856639,106.74638254269732,-19.395745732685185,56.218168552352466,13.076423823492604,-20.04002328646571,-26.192801951799183,-2.821932617700632,16.666429244868347,-31.53822281435728,-23.89302170416579
0.104,-49.720712107808595,87.48830711155102,-20.17083386730976,28.710013806200603,13.145373983584683,-18.404140138230243,-22.745057364541424,-1.052951712194843,6.781088642213473,1.3385829308003232,-24.0320509149097
0.112,-32.573582148036735,60.99206904113369,-9.025954576284049,-21.886823341227792,8.637888030868368,-4.549429815616227,-6.759487834256711,3.3949891093778013,-12.789997591772746,11.000665055818759,-24.161970599968473
0.12,-5.443239566328416,50.68078746770333,2.7380552384212766,-34.41381070348816,3.4526530394629944,2.7733967609374117,-2.3572321481407097,8.26616427069171,-50.563241298680495,3.4292134225283553,-20.649048381078526
0.128,-16.296257636239872,71.24324675680653,-2.63117767185858,-15.31870416562741,5.000244814114507,-5.141083197514642,-11.320262691266942,2.5396463981384536,-71.3543366823698,1.3165023890122702,-17.212092221348012
0.136,-37.4299942781151,98.48730791526248,-11.164751973412805,-12.455891058855446,9.383670915208052,-12.199551432920583,-17.65621534350536,-8.795720669688441,-52.02543925498796,-2.6749908254761943,-24.370616082061012
0.144,-32.30959095942578,102.67718547731717,-11.42965908629255,-20.606163568616783,12.201273653680486,-12.076809564906668,-19.36015024577688,-15.505092018247959,-31.393542871393187,-18.721579104695984,-35.56486940011348
0.152,-35.148264953676254,82.99063788672163,-16.390803885461377,-24.373616980839056,17.576073598992263,-14.303848618907583,-20.824237833119692,-20.113346706233717,-33.82456839567949,-26.333095691055497,-36.125782579889375
0.16,-57.80222396576622,53.91715529452049,-26.26275187369978,-35.819093874225736,24.40401624001836,-17.14337700438466,-18.21348546485866,-25.87309248514602,-37.0033948197403,-10.23437026814969,-32.984867440278855
0.168,-56.62676892367883,30.07529969050456,-26.69291423673224,-46.57194174563134,24.438648046362292,-14.331621915225181,-12.918125071661427,-29.292749166826837,-42.82249904003279,6.642401956308267,-33.60337945590659
0.176,-33.59451372313863,27.588268029687647,-20.34722083001469,-37.34712616263858,18.638908349650254,-12.701221555881409,-13.776790097706463,-28.70780868532272,-71.01579648759602,-3.5137797865372926,-25.113775195357572
0.184,-28.93377092394572,50.62475181479095,-18.072125313584493,-17.88762218088437,15.185508615774879,-16.01977849897734,-18.60963635323389,-25.41899731882601,-96.31351431341095,-30.071875271229924,-9.14738040189452
0.192,-33.75458575462304,79.38759272044283,-18.74089961398089,-1.4515483195722054,13.781340230033827,-17.420117605173246,-19.819359942400936,-21.06175965848732,-85.99769749000654,-41.993613362940685,-6.4208666398659195
0.2,-23.56920499750607,92.72107219136011,-17.5660916006185,12.87534252769743,10.261645411295982,-16.11527462704125,-20.36841687587726,-18.082840219981097,-57.43498648262133,-35.10863111875488,-15.678063053379814
0.208,-19.457589567237523,92.58317522951067,-15.313108197410925,20.768107649954896,8.49280184264254,-15.75316175750249,-21.142754806409382,-18.694983847520938,-41.45959556029289,-28.921064798295255,-19.555637502540087
0.216,-37.05284142845212,91.00845633354565,-15.717049926894717,19.119599567730138,11.231702582403981,-14.10054227265074,-14.275116736959967,-22.98103205766732,-42.63100593876498,-30.415492444007803,-15.028656982086439
0.224,-44.516801155813866,88.37247489787319,-19.179966301120476,17.470264302010296,11.318852744493258,-10.212811005317404,-2.961969763136693,-25.989384176731495,-54.47570592692103,-33.14891275580906,-6.43882910880723
0.232,-22.56722141936812,78.05915820938955,-19.030965703491187,21.176474729987387,5.205961550685173,-8.152777159526336,-1.0430547267316956,-21.931859247038364,-64.32271525516603,-33.50469392905113,1.9444048770233546
0.24,-3.1895459130165396,61.00370574273804,-12.197486678354954,19.018166949637372,0.8336287111062903,-9.99875531543557,-10.337293913985688,-15.935835790004706,-51.779703939297306,-29.053010905280757,2.5232206260094445
0.248,-13.441571953796462,46.15399559258202,-6.90283122270056,-3.524563790143386,3.827709301114381,-13.290520141097067,-18.82148421416924,-17.467683894069616,-21.551418314098555,-22.139475214264078,-4.190878068255535
0.256,-31.46773127812306,39.31851044648613,-7.853342711527503,-38.36458796524609,9.81504494503198,-13.227444437904756,-17.965516230904257,-22.145199031899054,-9.314060043830196,-22.94437385189129,-10.587294746533319
0.264,-28.03905413086306,36.02866433857596,-9.234284453019288,-56.89733987591915,12.903732835539781,-9.296320030023303,-12.8578074424386,-19.854829742940236,-23.734648482737907,-31.722087385715003,-15.03974690061818
0.272,-13.383577811794442,28.64014687655803,-7.661897582482456,-53.627264311200854,11.76981039393968,-6.7895743481820015,-11.833052398692912,-12.485318697905099,-30.301157371582825,-36.325815738851034,-15.11497789850161
0.28,-12.519401554808228,16.525194911464574,-5.34838155193057,-53.1931508091808,9.379261904727858,-5.718283808380299,-10.1201911709074,-6.952988123828864,-17.18599943827907,-34.03870904761114,-7.269207488932779
0.288,-21.909580289970062,5.5475560943848246,-4.794487994972251,-58.731188548347674,9.904777993141268,-3.153549106799645,-3.714195100168893,-4.745003749779495,-8.617701124432486,-32.37881295120011,-0.8426627845188053
0.296,-20.150726543677134,2.378382081927295,-6.619109556051934,-51.34620907816182,11.970543739977087,-4.196047229876987,-5.697789940251416,-4.183631225116115,-5.1057542578506245,-33.036370991256796,-5.316237906652857
0.304,-5.173340068117181,7.836587025062458,-6.38346761341293,-40.06530756554684,10.217775712221107,-8.560334083958805,-16.837022897865864,-1.9260725109884058,6.9575629262154886,-32.88574323758092,-12.594071264118963
0.312,1.9150709934054608,12.90392109994918,-2.5464807473641335,-43.36183221697337,6.5824847613631245,-6.057684574060615,-15.43099926216875,1.9097044705524273,12.879959690362346,-28.790782011214613,-13.453268707310741
0.32,-9.445454437970184,8.4678487431634,-2.126200488554523,-46.81416102055901,6.635355936470227,0.051989493483597785,-2.32389658977682,1.576854169381281,9.485472286406283,-17.90969183218504,-10.491784018463068
0.328,-16.091481349379755,-3.4863316060115337,-3.517071344469546,-35.20161477896538,6.305986329634553,-1.3555028992620957,-1.4310606493550504,-1.3429815629243318,16.49101143792161,-7.312690819662729,-5.478513587489356
0.336,1.2154148960796822,-15.194632606529051,0.9552371082372778,-18.462720498676287,1.089478451618961,-5.985537893708645,-11.893754073184967,-0.12839666374923853,20.777393230893935,-8.165250271754424,2.2401514214811207
0.344,14.422587785706797,-21.499834050576844,3.1262327984128775,-3.643697992282128,-1.5339574476187536,-6.984690968016329,-14.936432468607862,0.46946069069440677,9.005498481570516,-11.82242005612344,7.03895103295401
0.352,1.6953907657377743,-21.882810633946892,-0.8312262298949589,5.261738535353133,1.5110930046299775,-5.192961713202905,-8.068512887294515,-2.2068128563414966,12.836590333767726,-3.5630965719928303,3.987528064707963
0.36,-0.22728923916485205,-20.888794197740292,4.59500631455428,-0.7774220758724577,0.528887685390745,2.33643690820327,1.8671781104722387,2.934607312823903,33.68931522277716,6.0580484319488725,-3.2017479275742287
0.368,21.909433053852464,-21.446654596096288,13.544339204837193,-10.133276732187912,-4.646429163121359,11.456558945711185,9.993913085576231,11.26863335386429,31.892064594468344,3.832527391933801,-6.6796832887380395
0.376,18.40611208839966,-21.801325935076576,2.6707554705870424,-6.572354689563032,-3.285259777693946,8.623292743386408,11.434368818214152,3.7942167285468376,21.963038444239476,2.164604964968086,-2.3591881076321353
0.384,-10.121769676987823,-24.89044945799121,-13.564784837322957,-3.557664222610076,2.330750868857023,-1.6643498871653781,5.605944157336781,-8.777641160833191,37.7130721732987,9.636394134526395,2.591134429451993
0.392,-6.978514331783659,-33.31977439350673,-7.899458398678101,-8.584306422116967,3.3219023537836385,-4.945823556091253,-5.120010697902315,-2.1387356629416683,48.67475190316774,13.380070918567405,-2.5903097457517212
0.4,13.928720081252218,-36.964727206459855,5.303937906530949,-3.1798550204739273,2.8025025988137986,-3.3073214605199683,-13.55864097372518,12.340136150162474,32.42880105025604,8.402506280612139,-10.652312704199447
0.408,4.9494902933078855,-29.70247287406883,6.6544396607856315,11.227771070439779,3.4280451975764445,-1.171283958971558,-7.474365060089377,12.205154707124457,22.53865843501891,3.722100544671607,-5.380749205178557
0.416,-7.022267507741989,-23.987422011168018,6.353143707976917,14.342388203639421,0.07239807791134482,2.7212594873618676,5.217770111247984,4.006739045615749,24.441153293180104,1.7902680785550429,7.929003869707643
0.424,7.703833703882962,-27.400259410397105,7.937006888818779,5.716552106278015,-4.934184865221123,1.3733837446687247,1.4699672840735283,-0.16429274027682453,11.848288082763787,0.20499948894036962,14.004406853904534
0.432,16.531013100445413,-28.541744440353416,2.804519536787719,-4.73766281250481,-5.651336106001954,-5.663929140705572,-10.74290461054252,-2.4677560367141576,-3.0021269056656545,0.8101601864511506,14.964772234662153
0.44,7.004239377939453,-20.45831713782202,-1.1182135473401666,-8.024863307557057,-5.124629690385304,-4.815120384030969,-6.326884779632756,-2.3551259277108616,-2.0130178178119342,4.241132132158654,16.30341382712765
0.448,4.473906938053506,-13.011446986086245,3.5111394414824915,5.768844273996825,-5.472767511387161,3.4015338644232433,6.80443862774959,2.9817870258076247,-5.2264831718775016,5.91053191789184,14.32518835055263
0.456,9.238932064370562,-13.254587765840368,6.2007406408461,24.24795743963248,-3.9880705408117763,6.618100812727805,10.546324570070032,7.823790854241968,-20.285351251762314,2.2029062924976834,11.724887469836116
0.464,11.074724816036182,-13.588264783415614,4.183243655076503,25.367897790965575,-4.118063426197656,7.346899226617627,12.718154438322522,8.607382892851453,-23.263676391084815,-1.5754406625681783,14.021637396939578
0.472,12.549682578928758,-5.938497674083211,6.501376143679187,20.381154861255173,-8.610225720107614,11.315262595366153,19.06692644594203,10.264169550491571,-8.821907207619454,2.9535225079480045,16.398231181681727
0.48,6.530150949416829,6.232360143578229,9.518850825376617,27.65868640690637,-10.385944955000761,11.252525712886964,18.313923175958003,13.651216934301884,4.934910558129119,11.000489579526679,15.08544021313261
0.488,-5.921040426454644,14.672461336453551,4.001502930834313,31.438460685721633,-7.071580532027766,4.863628551552152,10.635186935096785,11.724165410741824,10.639575226439806,9.230365411422015,14.497105071256183
0.496,-3.9643577279877023,16.39452985683146,-3.1072608500719214,16.40022655662684,-6.675195931222281,1.3761041876897613,7.566698547090932,4.465157975034423,11.168780013324419,-2.808550379176432,17.58332745710296
