time,C3,C4,Cz,FC1,FC2,FC5,FC6,CP1,CP2,CP5,CP6
-0.2,-11.97215349778758,-54.87460454133164,-5.439374354509616,44.657658712789164,5.577329612089276,-1.2457956521122373,5.059801805074106,-8.976371915394864,-27.28844906742261,47.62535969036248,-0.5703809396388637
-0.192,-13.099303153545891,-65.71531084592709,-16.028145012915925,26.8210344981204,12.583821133626776,-4.279540092005178,1.7194427212021304,-10.029358813583023,-44.73708868477502,42.60201320512145,-6.7110283643921225
-0.184,-20.63304712098957,-57.52413462331474,-18.844362371766955,36.675575253142036,17.616341676051075,-8.478780837967653,-3.6880438702475056,-7.029062834859348,-58.13267583355067,20.921711359464926,-3.0820329259202848
-0.176,-26.862203427999145,-33.66069714612159,-13.02439545900969,40.952925766726835,14.095174021649798,-8.493926128453426,-3.2846662432404545,-8.480965606930637,-51.485625515521384,5.380701639195976,5.638962360318338
-0.168,-22.375545829910926,-10.561699894404436,-11.986569311665288,20.611564365881815,8.485529790056441,-4.751188470250668,2.4523850618928607,-13.855033172214045,-45.18843604496146,3.6713950134383952,5.0770988615746315
-0.16,-19.501797695698016,3.8280490888163463,-13.593458282672488,10.304361174522441,8.862103989882753,-4.469524429628994,1.3660869339673365,-13.14319081233181,-56.9370798580803,2.852374290994913,-1.168250784563856
-0.152,-17.783626230763563,9.385592223402048,-5.933481484994138,18.865876526546344,8.041604629718313,-5.848775524409562,-4.690363081542823,-9.01317425105056,-69.56775588601846,2.575040292035986,-0.9658266082728378
-0.144,-9.933059748472074,11.079894043445236,2.9441147765352524,17.864890850169925,2.005421210920868,-3.1058335333812503,-2.5984840528504356,-13.794112895398618,-66.34800346293962,4.945430042964816,2.9169852472338196
-0.136,-10.165694760840058,18.12504205663013,-0.06794061755477278,13.69701124821165,0.6513391851785149,-1.0490979276891867,3.5304712857603175,-22.732528012461987,-55.13556791446729,0.8330420652657514,2.3077582998251147
-0.128,-17.07748791530828,28.83994958083314,-4.901083620971896,23.860556362972723,3.3698781287272364,-0.7192537424991181,6.560980023472971,-20.190888200588606,-42.436152304362125,-7.331052893880919,0.059398573018338716
-0.12,-10.273558173849747,34.22079745997462,-1.6239490292605123,32.59552687982313,-0.48273585693789595,2.3211133311623113,9.30042191512952,-9.049308316156543,-15.991878454773518,-10.037337252224658,2.346981067798722
-0.112,-4.862792168910484,37.4427587626135,-2.946972232512272,35.20190854053418,-4.952363839801005,-1.1916289410631344,3.019866180787003,-4.247988248077719,32.055606972922085,-12.393790217210888,5.864835590457593
-0.104,-16.49324316526929,39.56285003893563,-12.32229238348345,38.51522562644483,-1.4032055245500485,-13.104497300614836,-13.98599137315951,-3.4057327346367865,78.01226983869371,-13.23569215314082,2.9998456039647907
-0.096,-10.911663780802998,28.317796187001015,-10.957276305863346,23.939480195184395,-1.5270125373492647,-12.149591605579252,-16.36512031563661,6.463468449044261,83.7820984923707,-1.4648080203090998,-1.7453795771064942
-0.088,19.487381374109958,9.486194000397697,1.3613808176601856,-3.97486865960011,-11.3395636846028,2.1875015959497754,-0.7369522827197605,18.544302273769002,48.97108905808929,12.005577108630227,4.433568030966987
-0.08,26.546994048240038,6.761975296095012,4.3447727526226405,-7.983719020473471,-16.32501354357529,5.464144029309553,5.275943568223356,16.405092560215667,18.67557243776388,13.747871400899252,15.963349289789058
-0.072,8.60671619344696,19.588198775309912,1.7239866711097827,0.5830120891641366,-12.604766899889754,0.38281319125987356,0.34968729797521764,8.214362312932392,21.617963620494244,14.575757998242219,12.906777704617205
-0.064,7.966350545430416,30.590384790754005,8.92399818891386,-17.584985733164743,-10.651476295581938,2.940054981364125,-1.5472347706778273,10.142363116619695,38.59420337387577,14.07801371264504,-2.9776914433273283
-0.056,15.449842148179147,38.30773195235082,14.371415173974293,-46.53850389611712,-8.989511795968697,3.071255626441201,-8.062483395383435,12.972352627985666,47.16271824574522,-2.599452483602337,-12.783449545615433
-0.048,9.172666978766467,39.93024682062296,8.593153616151415,-52.936464037066365,-3.4441764189281336,-2.589699508864746,-15.292052071569914,7.829568957379704,47.64841074967104,-23.082330957960675,-13.359357031037097
-0.04,13.395596725021306,20.112393032531443,8.365823791857604,-47.21972239569428,-2.1302584145423764,2.1755390952081584,-6.123254706553687,7.450293231362659,41.39660686369523,-27.231456562522677,-10.223272228958727
-0.032,29.78538495811221,-15.82268770237061,15.740884092470909,-49.501994128849,-5.407383273349669,11.50416704635555,6.625306620706288,12.078274803819632,29.472941126723885,-22.054785172250497,-3.0711098652482667
-0.024,25.173098669945958,-39.357591181784834,13.969762372327311,-55.32268598770619,-2.757944584788107,10.765957688650548,7.4755980521054095,9.17327660922698,19.288657093122218,-17.444132080439594,1.0731733238514765
-0.016,9.910685161855561,-38.21203479102146,8.505612649455303,-50.441172571322916,3.2116251326159277,9.044394221794231,7.990080912765742,6.81829105515318,11.137766027854102,-12.726225424128664,-4.139691130312845
-0.008,15.252646826655576,-28.795612577323695,12.067542758760979,-32.47853453300366,2.0896212871535638,11.297502394234225,9.552032478983264,12.839604208805714,4.969864554061803,-13.828104883624897,-6.0427054454540245
0.0,31.197813040384062,-31.05548080611328,16.75685280534082,-21.163957127236124,-4.574377127805547,10.322690492789695,6.096541305536446,15.016465607369991,10.462944571789324,-22.385119717965715,5.25144193643212
0.008,37.67762137284568,-42.518716145246856,17.594638149470082,-32.22324893621583,-10.524920202609698,12.29312838645944,11.064945767700848,11.26002032688963,27.004030150753056,-24.664763903294592,17.717229731524775
0.016,34.20151402617077,-42.733875272814295,19.151842113470313,-45.677290075045285,-13.45032009814526,18.207191302821613,21.978495272889255,9.005318462062506,40.72921645113868,-16.51032051081232,18.877630457519782
0.024,27.547584809691134,-29.793697222421773,18.519392214215504,-39.89640717741357,-12.437155485423117,15.042475390535134,17.20903915517314,5.775674347222858,44.00257066423246,-13.34427778295993,14.259060390192431
0.032,29.398910789527807,-25.39377899103783,16.39129782310788,-30.840682485156467,-11.752103070672591,7.599734724541489,5.0064858270751715,4.196043232126249,38.13622124683043,-20.714703006736503,16.584799140675578
0.04,36.18102740697271,-28.197549940338973,17.333540391891983,-35.016519503332106,-15.07918144556642,6.717042430611538,2.863638022279881,6.661743803454979,34.058451211752754,-22.470121410202832,23.982321842499193
0.048,30.39095212967801,-15.033911741052993,16.970337094596836,-35.22515349039226,-16.68702242960463,5.944066787106989,2.2483006779330763,4.351500350171598,43.61826179731273,-11.792750586019297,20.676093583867146
0.056,27.040715666165305,3.8485654096447677,17.745400494550406,-16.549980512117376,-15.975695618737538,5.621208619421881,0.5993189636239006,4.312454946675021,54.84663455457304,-2.2395647460591563,8.482416282187446
0.064,45.57128331256802,0.1371730047543642,25.211431656087786,0.7950206392576488,-20.25135842594173,11.558342920778607,5.018759369045491,16.07340028590184,50.481986983297915,3.259040990545094,7.027392833547002
0.072,58.0128624549277,-17.658434301919748,26.878072705009306,-10.19626041193804,-24.152205661770463,13.6447371763729,6.471565089942301,19.743193633655878,41.97587898249838,13.977797332990175,11.734382784904493
0.08,47.89634049924531,-28.66401142846813,18.74849480186355,-39.00356140538768,-18.915801442995683,10.07124279426592,3.1974246693797146,9.410460199946092,42.02175260341713,23.522659463838174,3.4283901539241572
0.088,41.41007022689533,-35.71260581284558,17.057645433645277,-49.25796964340941,-12.71326768841601,11.45824851005743,4.886010509363474,9.366264909620867,41.62039496962141,23.258409722488913,-6.934362553391046
0.096,42.24776026718401,-41.0720150030539,20.300840065968096,-38.60609176869773,-12.978197950846159,11.465108850189631,3.6917162556814653,16.1988303872638,40.75221521682036,22.142901067090868,-2.8687848662086686
0.104,37.692160301057115,-41.55656490416656,17.899177334390636,-41.289370809649895,-13.788388117322766,6.2589536133314105,-2.989609423525379,11.73465784825589,49.5319572632402,24.36316397870073,1.203713584831058
0.112,36.656559419188326,-43.985546879112206,18.365377764808713,-57.78730433539016,-12.148739605807947,8.433810899527566,-0.5932946469652628,9.82673297227181,59.25077765875225,23.683042384248488,-5.2882553288770575
0.12,36.054930018113794,-47.434616108516316,21.741603913710243,-55.27831795216225,-10.144330211224906,12.364784954647908,3.8690566076212916,16.587481070998127,55.238888317860706,22.8099300637663,-8.502511821723001
0.128,29.984230704455555,-46.886211793462024,18.860072796577814,-43.62504246047608,-9.181087858127073,7.964557650228939,-0.6142503483909253,14.226350281218638,40.494145366656575,24.756902487400584,-3.3336892476942634
0.136,37.28150840669291,-52.75137746140921,21.741071039535168,-56.66574215032984,-12.719568703794494,10.958798642050864,3.8445375472846126,9.462964924641277,27.57163132917142,25.276589183916276,1.775477523078963
0.144,47.96482575942282,-64.32720597934994,30.958336018485557,-77.9209123002583,-17.105903310901784,21.39235330009095,17.05143588973337,13.960865406972301,24.966376812776122,26.037161347827666,4.842723475089859
0.152,32.96179641348082,-66.53725898119659,23.004220780283337,-76.05304755366467,-12.678848745709582,14.408748134405101,10.08166436893389,10.318347325875672,28.386339466574555,28.40683182147856,5.999944679349713
0.16,17.96032316321553,-69.07604375599283,10.004673195843798,-62.24947861286723,-5.634766023319212,-0.7633443504212952,-8.781212031535667,0.050849256543033204,23.36602576047354,27.227639613463438,6.052781897293813
0.168,31.36994857313749,-85.44076725149999,22.49342951781032,-54.458556463278,-8.482970462233686,4.518319799036065,-5.69999004436029,8.117397839063322,10.048002414040845,24.519043449022117,10.969203393692387
0.176,42.76556856235645,-97.27315067136963,37.139492397463506,-52.83030411850869,-13.25121606744063,17.513072277121303,10.257231724288228,20.073961243737912,6.07339189802169,24.672268628964503,15.876264726057226
0.184,34.620511986197904,-93.74292374479938,22.247413985908942,-56.23030015490991,-8.290805134997761,13.339923248112177,9.765745940419272,8.546640534956634,12.588516090168207,24.42043010431235,8.877155413216466
0.192,27.914945192577154,-93.145346881727,5.568244964230083,-54.1409883631114,-1.7795378586383785,3.7461198784863465,0.09851151725831514,-4.58944966052592,11.959036485718835,23.22070120420744,1.2735300633285875
0.2,23.94589472979134,-101.03110466322954,12.658674704241252,-44.46657143104862,-2.731752673893556,5.735727935232336,2.5151096277036866,3.820432154580694,3.4737134430658254,20.692073956122258,11.830548333769153
0.208,18.68813908889566,-103.85633252236607,17.980264716174712,-54.72459010137736,-5.76839858252192,10.209542108297242,10.480106961427083,11.224756452791505,3.5844929764456994,11.731665641438534,27.204796717168048
0.216,24.692379594781872,-98.69234988417472,7.742082818430304,-84.65043736063107,-6.352883416926556,6.650537175538728,6.575949734568478,3.8041480681998827,14.877129270570823,3.4780426856548394,25.608191456597776
0.224,31.488690544021306,-90.98378734133058,2.7201649809459414,-92.49957391988737,-5.41300950741099,0.5694239739574878,-4.940926605582841,-1.6532061707019827,22.955191833033073,4.351344716448149,15.138019662640081
0.232,22.556613918870113,-84.432043716463,6.7259754385954125,-76.81528029671044,-1.3247344489390087,-0.4581805250865516,-7.424742916855488,-2.2264257952734816,17.178782307238443,-0.8011419149848402,10.266792014585633
0.24,17.322889641741778,-86.21537397369825,7.885382923789133,-73.95884679850627,3.5639033004052703,3.694167508642132,0.32191314849756925,-3.0262457699167102,3.822702460716999,-18.540967384097602,9.716822737355844
0.248,26.25297249033705,-97.75624047161956,7.991261805740148,-81.03731488113351,3.0729024017451336,7.326894900213822,5.184246265800592,2.543669207836517,-0.9945707315385804,-25.257176006708676,13.230136733410902
0.256,24.47251763711961,-105.68762142786477,5.179505316838066,-70.88225913464586,2.3023761451801246,3.509374917747269,0.45963295774568314,5.452593173355692,5.933386420737392,-16.109217115073143,17.760779154252475
0.264,12.344615262936937,-104.12319298335534,-4.040794701461153,-48.148020564994304,7.526375440216322,-3.4457654810850475,-5.651612588299595,-4.685109355226601,13.168269053694843,-10.886410007934543,11.503202986134019
0.272,18.46634784006377,-105.40256822544231,-2.8679232876083147,-36.20666495199231,8.71561078832595,0.4254340875061321,-1.0022743494036244,-6.268449380382953,16.242054763418203,-3.867810679479656,-0.3331362813760064
0.28,31.55020478927362,-107.74871552040948,8.80946294727271,-35.42197700560135,2.6197427554128123,9.463176734226339,7.274426461239113,5.723551982044645,16.08805572357327,14.617061825085578,-3.504033757887053
0.288,22.667554516391835,-93.30668847770845,2.826997898989736,-24.993781450727155,3.7452813513220784,3.2416377078236214,-0.05575011840782356,1.7363344276714154,11.45586220400634,23.508244996006685,-5.904668090558737
0.296,17.103893579976155,-75.42834449593099,-9.04951305400041,-11.132916417768985,7.713320175706262,-4.795278055780199,-8.802935664947832,-7.902584593844236,9.006535632077645,19.60676270331592,-12.871540924223895
0.304,45.25424647491848,-81.3052120955253,10.17939268132482,-23.439526539988414,-3.7991828093009743,12.060061301241495,8.785010341198452,10.64760042684919,6.0042355247937635,25.58014561795041,-7.747236031936855
0.312,65.21512504563208,-87.46417163853152,31.02123060572567,-37.681670059463556,-15.844918700224184,24.790391633900594,21.21093153198837,26.05660890938321,-18.887639654866398,32.711937820378346,7.20056882861856
0.32,36.50693929327313,-60.57572472316342,7.77781996434203,-6.913658743893387,-5.640961496337981,-1.9886410332336146,-10.209447456835266,-0.6808133157789006,-52.48130086581163,24.82874781544754,8.04774296647926
0.328,6.017153516784717,-33.193693965629606,-16.30706403862374,27.692226924159904,6.010250457186999,-23.857843320013487,-33.98196463145371,-23.872977422083256,-48.62452081298958,20.80035019111215,-1.7922096305346369
0.336,19.794678367909157,-45.42961787726551,7.766347299291841,10.455316356104627,-3.1302207106297706,1.7831546390105533,-1.13201562308264,-1.9108826117702973,-18.723455630286175,25.22421418897116,0.8921757425025285
0.344,32.7524239613134,-65.74247378547551,29.367919010291896,-9.532051517367615,-10.195083198875974,23.371358176012485,27.252284808317757,16.34359344085982,-20.39593573101329,15.262677357463776,14.068137694633862
0.352,0.6095497697847814,-47.1935449872967,2.2291460442086253,12.820633290364857,2.1529381852890883,-1.1106207183051457,1.976287426747731,-8.281417902862954,-47.28814790653405,-2.530915436937941,18.839429034421435
0.36,-31.703561372739205,-4.259103104107342,-22.414649913561473,28.96802085093457,10.462939090688776,-22.278196373788028,-20.05817795724617,-32.28046001992719,-47.30843898108929,-7.431034622235786,13.281309332714853
0.368,-16.83304876421083,15.681590114910886,-3.8241461181524627,13.514790988744728,1.0443710869847673,-5.9329165680039235,-1.9799847633340415,-21.003690753334254,-28.811829927737882,-8.24098361204773,9.696755933466788
0.376,11.022552731725268,-0.7186125695204776,15.042326855331625,3.4481281581855017,-5.561773265176001,9.180282750976234,12.277986250004009,-4.690418271903502,-36.270302415103174,-13.85751687975895,11.561105040873963
0.384,7.459289604479955,-21.152133315949975,2.2938484732395783,9.414985854074867,2.939865021848804,0.6846444895220807,2.5037952911540367,-8.395241185834697,-63.86522527170985,-18.56563568291988,11.208397770888817
0.392,-7.827816103516412,-14.425525451655888,-12.836501025095286,18.42021963666656,11.606147596508888,-7.743001447866733,-4.595558834094756,-13.968295309582441,-80.37034685970595,-28.30807174539802,9.129970885622384
0.4,-2.8961958077466585,10.488338291999918,-9.07944174111917,28.38321270826286,6.328904421912049,-4.726577092473684,-0.670708888549496,-7.385101661530377,-78.91396889422849,-38.29149724584843,15.352860521681517
0.408,8.798912199229605,25.48947613130529,0.43387431013233746,29.548861582870355,-7.141783265549347,2.0104594502294146,7.533945430249272,-0.2523939066279877,-55.87011706916345,-21.704186628333144,24.374690089025293
0.416,8.050955116453633,26.534637356846375,9.467903489595594,22.63207289901087,-14.655647308941106,11.165737089389513,19.97334618862003,2.7732496369241995,-14.86955506314456,9.40305745364919,19.107852048813964
0.424,7.422817195000347,33.97277986576767,22.052061528328206,27.093485806202906,-13.971836962251068,19.615399894665934,27.354334897652482,11.488058788431356,17.098957482130004,9.250593452291549,5.184056151628857
0.432,10.297437333750247,49.848244851934425,26.416885357356378,36.752814467563816,-12.703638798745969,16.935901169048332,18.464090979238172,20.389963316280866,46.91239553753869,-11.303741820179269,-0.021306982517609374
0.44,-3.6155829404658353,40.58885120301368,10.436827627537012,32.29984339985063,-8.862975875479615,2.171677156811715,-0.12147559140787399,14.323619909515008,107.5682977422818,-2.55801796882439,-3.5665768271717764
0.448,-22.156814715098644,-0.5999100062428342,-8.755729774034196,18.098163835073844,0.12643999385461124,-9.957666530754246,-12.998887360322184,4.9157888171422615,155.21372746802467,25.549105048944934,-13.699053767056762
0.456,-10.945980063419947,-13.516373574846797,-8.667486312525847,0.6563204527334865,-0.7414988484801073,-6.98704533907199,-10.882611625420667,12.574208565857976,121.58930858556877,33.24942175289543,-12.059544263184494
0.464,11.415537165066942,34.049322328363814,0.5169595774700589,-12.54518022776043,-15.72638585513636,3.2748730652689204,1.6062491507193095,23.97117051870262,50.57565414570731,31.18378557032444,4.599279251650249
0.472,3.252786744091223,83.73287418540023,-0.7939432977968784,-1.34246704983791,-20.512492535068773,4.80667745996629,7.815416927845593,17.504565461803708,14.766690415717868,34.47951113571153,8.02860105314624
0.48,-22.674432723051293,92.53143183703096,-8.649555627092592,21.84789474585219,-4.743244782669982,-3.4623319812691897,-0.4709962003252767,-0.716588315847526,-6.773488468212438,16.837723926338406,-7.984059081230141
0.488,-39.077447204277654,85.62454550078911,-15.698804448000324,18.319452604591586,14.416887596183077,-11.318565083421834,-10.970326487777282,-19.291127339077367,-36.08045735714582,-25.320383599863877,-23.714317790820104
0.496,-53.656874226275,78.14074038474793,-23.653125812529954,0.35125068763433437,29.775457416402965,-12.875034681574386,-10.853937317466016,-34.28549742736385,-41.09380162017907,-55.12170424528662,-40.774273692190164
