time,C3,C4,Cz,FC1,FC2,FC5,FC6,CP1,CP2,CP5,CP6
-0.2,-43.65067424878534,123.86357605432703,-25.02489189314826,-160.84726551227317,-9.625592457461417,-18.952549644261303,-25.03890393490193,-31.846435454554257,66.28525585221428,30.358840850670852,-19.658542712227575
-0.192,-44.5131583453028,102.71243297439725,-40.44328541605477,-161.4792905883949,-10.280105215519432,-31.97723243117057,-41.338532514074295,-36.98762180917758,50.04865099519542,68.94087111481014,-16.34797130065432
-0.184,-42.830407247528136,79.57135987739032,-33.06665591422156,-139.9296837649584,-9.032735673507727,-31.133715789964796,-44.8767953189244,-29.407903020765595,66.87663563868655,101.00957213804656,-29.259468840441443
-0.176,-26.259085128668442,51.08204639220544,-11.964787569075881,-134.2867484835663,-10.577303099428887,-10.71241025301232,-21.500488710639278,-12.381389737197168,70.49818971123777,111.40162595565624,-39.256360566815346
-0.168,-18.159668364914925,32.930309932784354,-6.785763410087365,-134.72882146138224,-11.760388993693969,0.829158905284354,-3.0903745565616623,-3.49401825843204,46.70580951461882,102.58404236239296,-29.263215330109727
-0.16,-25.15557516172121,38.771313792299715,-12.197270721673927,-104.21520118266031,-9.276446286776574,-5.787073922337936,-9.362504114530756,-4.250403345814936,31.389668668227763,90.31829226479584,-19.985760647113505
-0.152,-26.345782656340525,45.770091986547364,-12.103637998856914,-60.04387678839323,-8.975832660949916,-9.715381096067832,-13.771727040962238,-2.8746798603647172,33.25413936361681,80.9927798074004,-14.554894231063626
-0.144,-21.32402101263242,29.856847811802954,-11.406267284906349,-37.046124086599484,-9.970762727177778,-5.788172693295077,-4.790350689545877,-1.1281996122240985,33.3750003486202,71.21813480017602,-3.9532506077105225
-0.136,-17.6908085194749,7.003079032544838,-10.649318240526746,-27.829136592749826,-3.4128642639010742,-4.071416215726246,-2.44969800530208,-3.4747341549424138,27.812713607064488,53.17462574442379,-7.52034736290022
-0.128,-14.876883430358856,1.7994705202720171,-5.371438392886789,-17.5524524853681,7.953863978511248,-3.161250875412628,-6.08234383426326,-5.620194184122914,7.800266916065442,25.461604715953857,-25.374833915875158
-0.12,-15.146057977812244,10.972376958682418,-1.6486819364314338,-11.79304082407795,11.342651134613826,0.6117495574509176,-0.7324826470046303,-4.356831913823018,-32.61931530034775,4.742083543279407,-23.753917140690582
-0.112,-9.268925002942787,18.885842744448404,-0.3043576128837209,-3.1718549323370695,3.805573841586494,1.1237110609128353,1.8510626646650556,0.3882755318405861,-58.43095623058408,5.358089900173418,-4.712710597135393
-0.104,6.610793288581096,18.217868036134927,2.668669720769022,22.94884647743293,-3.4647083555965974,-3.4441798057999433,-7.647372319475472,2.950178358161883,-44.968577094072344,13.418387279481284,1.3881721132767555
-0.096,9.03985509007575,10.58748594750739,3.869320382078551,47.20988288290059,-2.3205184760060162,-3.462246825079188,-6.682242712873035,-2.6737741414760086,-28.087958611765487,6.195684423821997,-0.28303549694543517
-0.088,-0.908491756332128,4.527027851421947,3.9094612317007895,45.94278895915508,0.8580880578023127,4.7334514774445156,11.46191310645096,-7.0014272149007475,-35.11603488193119,-14.407624547838603,7.39002632527795
-0.08,7.44876401026922,4.546882515838212,5.317110680230174,39.10986580130899,-0.28182856446189325,10.648828322081439,20.478351344025363,-2.260831290096744,-40.46292450859491,-33.036608343446865,12.953641458035365
-0.072,25.778864662974378,-2.735689246622938,3.97919176441201,47.558353205663174,-0.35245614313057716,9.486904613147189,15.921881498363847,0.7813199800048088,-31.079724008489716,-47.85826698913129,10.681519391640279
-0.064,27.52081999274648,-32.10696910701087,4.140265095369511,52.36815853280887,3.171243651485802,9.434038941538981,16.588906447492057,0.051744119069863405,-29.604285024876994,-56.671121339691496,14.830692435749896
-0.056,23.616342773797765,-69.22635929568929,12.970456930672295,46.254979559669415,4.901954055232927,12.067477983954815,18.891400605487142,5.301218867741652,-42.08212829652026,-49.52431068589781,22.67555793158448
-0.048,26.37319220342388,-83.58854192171621,20.834943999993477,54.85206849951232,5.023680068551802,11.913713470105805,14.939443075744897,11.022809381960556,-53.45393004577816,-43.09293408801901,23.934576340808214
-0.04,26.309160066938794,-72.39042334694535,17.84675818961543,79.95397465111105,5.96608363156555,10.06479367673027,14.489234221128477,10.416658474147296,-53.40768494206569,-60.34060599235909,28.01224325714832
-0.032,24.855166623895542,-61.62676795203655,11.358562414072189,96.3414970711787,5.52937995671024,8.054286779912404,14.88623863210611,12.26588012038982,-31.461235043925317,-73.49951931659649,33.03563718639861
-0.024,28.87535031913078,-64.99504586094385,13.422167908097704,102.0688401940775,4.791830519275777,8.68619001709659,12.129699403335877,21.4511538801301,7.10641858188911,-59.28322993281171,22.524223345418132
-0.016,33.73736291728174,-71.12147585752889,24.545961127364347,111.35841267751454,6.2894869546380505,17.09994576601873,19.909183171168703,31.6648086827106,27.018527168498263,-63.08657720088492,12.662622722038607
-0.008,35.14848398537742,-67.68061997013979,28.447064710954347,122.25973266031517,10.201349192260318,19.350193240616445,23.829463954135313,32.33255224433935,14.396614614911735,-109.86967748032137,21.79486526999319
0.0,30.815382918321834,-55.62611986997088,17.65642223542388,124.69609553011283,19.496357875377388,4.10118573983254,1.9870382749551452,19.13184435739572,-1.7931369918944124,-154.50415898408346,22.040530972313046
0.008,23.661262102440148,-44.88634250698556,17.653933008369282,115.78538019182281,29.854714232189068,0.8624194510146129,-5.384597377056324,10.39730600841376,-5.223136947422919,-184.34976087049085,6.15634067067306
0.016,24.588087452928672,-44.91804810958811,37.75145238494292,103.77074036601402,29.804130981871324,21.749923325117873,24.563468408997775,18.66129376332279,-0.07431184441436561,-231.15399168797907,14.745041943460688
0.024,30.17537625112625,-54.31728600547183,39.49363292183057,102.08772440800887,27.813745371318575,22.150992601190264,27.62032777157215,19.370230836852365,24.452965670973654,-279.79968354307414,37.72283553732887
0.032,29.01501288909447,-66.16772923741463,14.888335687562464,106.36799121562609,40.109150534997134,-3.736170695117998,-10.316855275405985,5.169245236949231,64.08864606778964,-302.1886226690186,25.02994032955949
0.04,27.494684256122447,-80.8967668825586,8.031587615894388,99.01228849419896,53.5567186127715,-4.149760011964606,-13.098286191325021,8.333903366794027,79.12123338862402,-321.0106622374937,3.3217405250764194
0.048,27.81124167299726,-92.31978168960968,20.03025645476469,84.84904225677741,51.10483519190811,14.729259232807193,17.09075985196547,24.960588537825156,64.86482652485833,-348.7312558074591,23.39452282314326
0.056,21.567424487354042,-82.13330220820201,14.87142336596616,86.17577438710887,46.399747780321086,8.14886568924422,12.157609213550229,23.087638535265636,77.0683175163361,-366.1490243952895,46.18476837819871
0.064,20.24636854489491,-60.67452065236061,6.356372546083551,114.33775270825679,52.36393307853112,-3.4397471630349576,-7.013346933941164,20.061690638382277,137.93279530849583,-385.2977606153711,28.17949645990196
0.072,29.937064468755914,-68.19229639784074,16.640017560951932,167.0304158185427,60.94081783445976,4.565466191728325,-0.7069348802935793,36.14913988927788,186.75854922973292,-421.5978888686038,10.61543075433475
0.08,30.826465363531426,-105.93797805850635,20.78782772822957,222.005171541517,68.38490155042827,0.9427295738204504,-5.945872922208039,41.57126821955672,174.54045835087584,-444.00496828720156,20.29086407112011
0.088,24.40626645171643,-132.17668165963758,11.65703703879624,247.4126081340099,75.88095307174125,-14.610159570136942,-27.382097838679872,29.483617836658805,147.3567945940824,-434.7916812402559,20.0693743712444
0.096,25.7049520537477,-135.20348082715898,10.251877837076066,243.77925525437175,78.17769521217569,-11.278205268873336,-24.147271475597275,28.021944815942888,172.24251700091907,-413.8425424748602,-0.696548822746915
0.104,23.026197529251334,-133.5454303285818,6.292917165922577,231.56951176391607,74.70076426237367,-7.017161066501244,-16.703176970372677,30.57878609451286,224.16441552339018,-382.8427917666759,-12.211101342467044
0.112,17.9785321742942,-123.64260271010839,-8.366261454679114,213.3106071431669,66.77520659924906,-17.64894545665376,-27.994791703340738,25.022740362945672,230.26218384942536,-343.5094315589428,-3.7713023094072327
0.12,27.587277023558027,-94.62268109068145,-13.589566446774018,201.02927681162404,54.89154005486813,-18.640000953312615,-27.222200945364936,28.09793232824803,196.17977200637495,-329.2370836954589,12.886350206001907
0.128,31.064950124504726,-59.595818094356545,-13.138252213855939,220.35870588909071,53.32802761649205,-15.838753142257374,-22.450185894708937,34.00392342417875,181.78250635823076,-353.2486581786436,16.597907500137566
0.136,18.168809947466798,-38.008175333195,-14.000757081929125,259.38609186886237,69.2361856493754,-25.22700305695008,-38.99130956795188,28.460700422393618,179.50034209226757,-400.25711125334004,-1.5493460762739464
0.144,18.443323639592933,-35.844897587127626,0.5858640279207826,286.12708291996023,83.16613817525192,-24.80391572479053,-44.834704824753985,23.870954150872215,145.05786504640022,-462.9649807819241,-12.178204520940689
0.152,19.04961587691726,-39.62153748103831,8.715304212696298,294.8278971102118,89.93553664140371,-20.243482147878996,-36.340976893460564,8.503710410828438,106.45868613894498,-521.7033027611261,-4.325164166969704
0.16,-5.869560078264294,-23.630952290430976,-17.05475570056969,286.94588568151204,103.77321510093408,-36.20812050013189,-48.80165398173189,-32.82730453790026,105.70736579704597,-553.0407016793679,-14.618117958872212
0.168,-13.170827972833449,19.479537122448882,-32.29019610073472,265.2476818679358,109.58904004052727,-41.14488226946607,-52.472128313420626,-56.88016569550072,105.73703847373508,-567.9434010226416,-36.088318589401986
0.176,15.677174144474325,75.44802739272956,-16.02661314197535,254.70029019410134,90.44852752890976,-19.24316462710112,-22.577294128756748,-45.71654436437964,75.15278638684923,-576.6740856216586,-24.575542450596664
0.184,22.044748880310927,131.42464503533515,-21.909577328851114,273.63869739104456,75.54268656514468,-17.05040288721684,-12.098906782201354,-48.20063497708614,57.08343237723883,-578.0903394367475,-2.953199461886144
0.192,-3.994712822610467,164.75132132118395,-47.731858977593994,303.9841220907929,84.5427685986987,-34.707341464880365,-28.11601284465715,-66.52833889273575,74.63251160360318,-591.1995467626049,-8.26629550538986
0.2,-11.864942787712065,150.07526217879666,-39.893090143217464,315.68340325923214,91.41990784515397,-29.62704703390961,-22.072529949873296,-61.32388248786093,89.1915716119253,-606.6849634623462,-13.868544790342439
0.208,-0.6759998196100901,109.30955633690749,-18.91725942564747,302.59486434801073,84.85956706095186,-18.69001675097564,-12.749926743313331,-48.040555850349406,81.16506882660784,-576.7527950368125,-8.157026780228673
0.216,1.8178911795471013,88.53586423655476,-23.16121427676806,287.2621724551804,78.68157092943562,-27.292356835720526,-28.553672023235368,-45.489547945819595,73.03898729941797,-504.79508241397156,-12.87307341348989
0.224,2.0944713182304215,86.17014209553756,-25.504938330533932,284.4525473975698,68.79639073805538,-28.465475354695762,-31.54362650480083,-32.27689383784899,81.40817828402083,-432.4080254314324,-14.773530673545727
0.232,4.622840041365525,71.21628363260344,-13.302910310506062,280.27843971881936,53.46102977964643,-17.908789786748113,-17.099340978123706,-18.66158943111207,99.59206594552735,-362.1242435599737,-7.211153410819702
0.24,-4.889014960391783,35.80237767427347,-14.737788793580687,271.07968903924296,50.66678007751042,-24.195568373023534,-26.4667524944303,-28.436842504930965,111.82929365375932,-288.54638959322347,-15.882707280212276
0.248,-21.996133733182717,-11.761394971673658,-26.008057404479615,269.8478502514544,58.96222308439893,-37.73717517781313,-45.74686614040267,-36.50379123389325,115.79036490137247,-229.8138059934038,-30.989436747312222
0.256,-27.022837611255166,-53.44926467529671,-24.25830740786012,264.1853095035694,60.897664431345405,-34.41713066810426,-41.60597993672978,-24.13438941063859,126.15217278604226,-196.98012580894886,-32.387411140724424
0.264,-18.459777635493243,-64.42082373402064,-12.344165964240991,242.14710530324146,59.16982102440687,-22.743118413283813,-29.421433315415474,-11.545777412581295,141.93057496036775,-198.54737224179644,-36.818106623244134
0.272,-15.24741417124636,-52.60121086075639,-2.024130369363932,224.3138580051343,62.2732460641845,-15.504720557999653,-23.609688378753837,-5.445972842252572,144.93248810797039,-232.85262190915446,-42.37575590673505
0.28,-28.01490186747772,-53.676509502906065,-3.7499578334032835,210.79907958230788,66.8687326341525,-14.27761857950047,-18.816678292463365,-2.9891848096294686,139.88889849254534,-257.0262803185467,-33.99021505815983
0.288,-41.11758298426939,-74.62870015018181,-17.643402013888238,181.553720697615,70.86163474654275,-19.04845881907034,-20.38680677963812,-11.232076919865992,141.66107503018947,-239.52844543758746,-33.868686230017886
0.296,-36.05818419209713,-96.73423382921791,-18.46549005785864,159.14178261576956,71.47108981626916,-17.59963133807886,-20.284882858956784,-14.93877044885459,136.62890831410243,-211.08225808286514,-45.23023367508993
0.304,-23.340229434519067,-109.68781792715662,-3.505267471520426,166.34455248176738,65.49544457773365,-6.125885276876357,-7.051122314666304,-1.0368594474727182,114.34776521072784,-201.31055349231008,-37.73151513971533
0.312,-27.081959472370684,-106.67120834665538,-12.373665059627985,170.5306562389511,61.824634088803435,-9.959851354798706,-7.4779587909130205,-0.08045597750696455,96.70016886340247,-191.85190673892888,-22.6532748688078
0.32,-42.11651552881356,-90.77699535652573,-42.470679511696275,149.7640930741882,63.126000695366564,-30.357556266224044,-28.806198346805115,-22.685496218855743,91.5860150280846,-168.12063241437716,-22.595305480177853
0.328,-41.221320692720916,-80.12856803891118,-42.94321982057019,127.72675504276641,56.00007431869721,-30.199923471527633,-27.610468847538453,-29.177621660916788,80.68792297803631,-145.88096564475765,-18.731030450618977
0.336,-27.741392944196576,-71.86268207833501,-18.73738174046563,117.8809895828725,42.62824649038282,-11.068413437388068,-4.275042498292858,-15.945091004218298,69.26074743132348,-130.7356260127688,-10.191307308979228
0.344,-27.69312297163941,-51.22023464774232,-15.052538840032048,115.5278597825841,38.31211780559548,-10.854038157478692,-6.076890318603199,-20.59221165793956,71.47904711519035,-109.48919198767331,-18.997876510357784
0.352,-32.210515141262704,-34.55662750073191,-23.300238704067038,119.11833329702425,38.19572799019007,-23.987189464916167,-25.764149784017558,-36.3909520637231,66.48344245469904,-83.8338549387868,-30.25009801218519
0.36,-21.41500333631406,-36.62792922215265,-16.906301245146306,116.64988802741185,32.260766575101265,-22.77321572451631,-27.198633288495063,-34.09973196947791,42.677970912461426,-66.67318197381213,-26.595862445482066
0.368,-12.298673738290647,-41.65720948585616,-7.261117305084627,95.26632305025116,24.929172704881584,-13.582813297940952,-16.898766929155638,-20.466404905047867,33.11106129409656,-51.69557004400206,-19.675992151719306
0.376,-10.045539137812124,-47.360699053092404,0.7961835133516452,59.27782786673145,13.930190083571574,-5.133768023855252,-6.545982491106584,-2.6864267115220004,55.54828611328363,-22.833960517618504,-8.21709854464498
0.384,6.665638905275954,-61.79810447881631,12.896366249806448,18.646495553530933,-4.496985108019856,4.178431231595752,2.3999583361595964,20.14542563600689,80.99521943870161,19.285055734547907,10.053716423053503
0.392,20.332915936591423,-70.71052107617494,12.287993382096492,-10.770499469080752,-15.505692229624175,2.0578774751519493,-3.8599653434366283,26.847973776007752,80.38809138210547,61.23140897557001,16.238058891990192
0.4,9.083545765281139,-73.75337939597196,1.9088792390152642,-19.693721829803234,-12.888377693962832,-5.783227740429586,-12.436329439454273,17.137382146253085,59.01530960181113,87.80306104201905,12.034767169736915
0.408,3.6913933444239815,-84.7842997560875,7.853269694556792,-30.932202860357087,-10.955981520836572,2.752129800449816,0.6472618720640954,19.56278287012112,48.66087827373038,88.5332392350207,11.440083198164054
0.416,14.665583443302756,-82.91759948463579,18.753349480486104,-60.844513344329954,-11.792414819514756,12.956225978595846,9.71876422884086,27.25628781236519,66.7346405986736,72.90611051742621,2.990598269315459
0.424,14.175213811667275,-55.73211711475638,16.798124752576985,-89.22140050842178,-10.02886181349861,8.70793252491316,-0.7502506972786557,24.625396152077585,82.21088441243467,63.22610981103258,-10.87161189851562
0.432,12.263410974757093,-35.61506453510267,19.736919538842475,-106.48199959743634,-14.872430210329968,10.616669216042926,1.5748329486115284,29.934028799923322,60.42739260073896,65.53757598417431,-2.6291026442351852
0.44,21.56750277866539,-25.253744751893922,25.519026129013426,-120.21034058611842,-25.9848274560083,16.745105767749642,11.349020683623761,36.00048455616789,17.853709152342685,74.26712458973134,17.907128413844113
0.448,18.153172237306222,4.939475921368756,14.674361317552972,-127.14234549557177,-28.52199327192492,7.639958007993641,1.0132133354984083,18.14954021528637,-17.804526587568866,90.9075395720815,15.374965451812564
0.456,12.3918750040562,39.53009839106884,7.450229187655808,-140.12690726548135,-27.38819863711336,4.2307916481120005,-3.052693793290875,3.8648357151634696,-53.83909359781746,107.5720816218556,0.23802012812711004
0.464,25.293951612291053,58.83371774098155,16.182257866950557,-171.53526438894878,-35.24897625445209,16.661898475808368,13.00895351211623,13.403653245090629,-102.45077893878559,105.51265550148614,8.697477666587076
0.472,22.87117787738669,93.73043366248736,12.775420535393677,-190.8699503480452,-42.72741426470838,16.60507724341715,17.358313898546964,12.878037828859917,-147.62378071036198,91.0038515134814,31.81716059009577
0.48,0.49481573415053304,149.16995824260866,1.1553564769355722,-192.81270051554222,-44.33886775883051,11.312672092268386,17.503876023612346,0.874801571385586,-163.2091179936666,87.07505167012715,37.349555221113114
0.488,7.848892113781972,179.48197661429438,9.345261437979222,-218.36354915396097,-53.124830735924306,24.169666547431376,34.71701578520031,7.695979361726596,-159.54821958550414,91.60401889195772,36.203466475051094
0.496,35.437636144177574,177.31457981052992,19.359023237182956,-252.9582834100699,-65.31729193671767,31.020115643437,39.5312817393878,13.654341361901697,-184.4032307580457,94.12270818212853,48.748636155155246
