time,C3,C4,Cz,FC1,FC2,FC5,FC6,CP1,CP2,CP5,CP6
-0.2,19.99290218670684,-63.291759504702526,2.7130890788110587,-83.02022064827612,6.038833152217782,9.072158220772513,14.217656659857981,-24.636036864836054,40.37537640735943,-78.22302559022833,8.112575735524969
-0.192,9.95160258399275,-13.804221423810967,-9.26597353676413,-59.3756692790565,2.5155453637545286,-3.569027030328714,-0.9070901620382876,-27.75865740280366,13.178010826309805,-65.49825401532344,12.905642487990029
-0.184,17.952938865780908,10.047881949451446,-10.981084881659632,-44.90949972331822,-4.920435304141015,-2.0151461059623794,3.736877018267549,-24.07582586834233,-5.264951473830182,-68.01385400710932,25.289013981562604
-0.176,34.17205902462813,10.686818414948855,0.18115942355905437,-32.0682308415944,-14.413678754036459,8.904978804185744,18.41134062134403,-10.770705602161977,-11.575326064787893,-68.13854381786544,38.69988504263364
-0.168,30.481078438842502,21.72964828294,10.100974477911763,11.475272104668564,-15.29295112582284,8.48131727864323,13.991993668795445,4.547683092897032,-4.276659589634036,-62.42980705752822,38.66897064651034
-0.16,16.396916907108913,25.450888123419087,12.018408317282189,48.03313958830951,-6.07592189845561,0.17240435718932273,-3.1730529647006853,13.674131368546027,19.515069511939885,-54.982377986914216,19.891332771102398
-0.152,14.321664587231316,9.034778541560975,10.387508306380132,41.784115793824206,0.6718973960504652,-1.1426818394940268,-8.72316854262838,15.706429499605385,50.70754981047269,-42.356783734930104,-1.0802316769702343
-0.144,23.01758580878346,-14.513865302743366,7.975903758640974,30.874484359553616,-2.058120556169203,2.7954299906894517,-4.170304017451784,19.75029593933489,71.66999854087896,-1.6865283093336962,-12.246118547642038
-0.136,34.67056255261247,-56.59086936678076,10.128173478955603,39.37471730999004,-10.133520909742673,6.210448875603203,-1.690533683417649,32.97029882202684,77.46983112719603,77.28056529169004,-16.48227420245646
-0.128,40.335065362557145,-113.39000796055512,16.339049127339173,43.52912271873379,-19.27702929168022,9.76411385292825,2.2703881008334035,41.51451575604748,74.94949230683437,162.98796560272638,-12.676947731526882
-0.12,34.74193555435655,-139.7525203742899,14.131452201001485,40.80520623982091,-26.60300421769063,9.774886738338585,7.644763416955013,31.173101807732007,54.6240310636248,219.53956255403122,-2.731948073038511
-0.112,26.077001942010476,-115.80041117596217,5.37373927910137,47.44042853857526,-25.325729726411495,3.319111108928107,2.5640337924648677,17.416575032054308,8.781389533219897,221.86231277697763,-1.2115403570360455
-0.104,13.505707522476682,-62.53065520606899,3.8349119009401567,55.95613652654632,-12.464277878695505,-1.7229223820987294,-6.674764349675101,15.558192012191133,-23.974516718094417,154.37683327484865,-10.77897869582261
-0.096,-6.423619345918368,-10.875432314769093,4.656832332265902,50.46725895959603,1.477049917794528,0.6824394499498024,-1.8821981278535782,11.929552159645635,-5.127760233910582,59.802638078018774,-17.78891293608159
-0.088,-16.151713033889852,7.128450660871207,-1.2175544912420475,31.77611282384217,7.587154114608409,2.8180265711312957,6.3168531211028665,-2.6528541442174283,31.763078539716737,6.761473620916329,-19.984174716266985
-0.08,-14.408010623329973,-8.78774229117597,-8.465507912312578,11.196595924874163,12.987355089534205,-3.1386430136411843,-1.7067700518032418,-15.066127351361118,31.333092241004906,-10.7108569019214,-22.283292840286382
-0.072,-21.378014162073065,-22.556374275480316,-16.22349114486423,-5.550053632502904,21.008244505670746,-9.213722554078675,-8.989019144866308,-18.199438153540356,-2.730639989125874,-29.306174045790186,-17.901565352103802
-0.064,-28.957036581332925,-18.764463737822414,-24.120786552748935,-19.003182418592196,21.229011966468708,-5.817935719522179,2.426471252557743,-17.197469935069797,-33.762701112879725,-34.631526642257285,-5.710866680402966
-0.056,-27.951459258696023,-1.975053716308366,-20.766498121937893,-24.305777520615624,14.378008621027357,-2.0034431874153817,8.754702819733662,-14.586472341643274,-47.832961938273286,-24.251031568511337,1.9105235787588437
-0.048,-35.86252472600049,34.59619421554129,-9.240863404708183,-20.712157701844085,12.334788999200528,-7.999565332167033,-6.186994360449899,-11.250224142006061,-53.175419957186584,-33.96867619982402,2.549994730321258
-0.04,-41.883396234185724,76.47608052149224,-5.193030442262178,-20.31131212207174,12.734347584553516,-12.820489715831625,-17.050760922637963,-8.091942084154178,-59.373191288691096,-54.86630421734771,0.5553164418664751
-0.032,-26.895527611658864,92.0380899182297,-4.9811452854401574,-24.914427329995167,8.96101328950389,-6.381206886385538,-9.12816658228829,-5.448252604077324,-63.5782521925826,-53.53030559779235,-6.505533715787267
-0.024,-22.219865630962158,89.75276035024199,-0.4230724316856552,-27.57240155489647,7.085165512930653,-0.03880356746494769,-0.4550433949637623,-6.977728707964974,-54.26054491184388,-47.81516244547003,-11.636817452290101
-0.016,-38.44654072753047,92.73165842013918,1.9940287523952416,-33.61962507546047,7.899975634247205,-1.9408425927885882,-1.0254877160344207,-11.270547941116313,-37.78507788882244,-57.09431216617704,-4.1950760377357765
-0.008,-31.143318624255734,91.51497996822339,3.03663451424107,-37.17051317569626,3.1631899089743944,-3.0560010708751384,-3.23819389912821,-8.248085296858426,-34.63775118782809,-60.21163408123592,5.821553534277873
0.0,-3.8959947772544727,81.44514728341062,8.007143256800443,-20.179519864414488,-3.506911393691281,-1.134884250305369,-5.333532551975001,1.9895929500725318,-37.0111653610668,-54.896192813648966,8.809470064899207
0.008,-3.3020944608940694,77.04064829215011,7.661280563101031,-1.8082466276195992,-4.752916610130511,-4.2862349280499235,-10.544351746524654,8.248884804758644,-17.384596276487912,-48.71309546433252,11.22941571503015
0.016,-15.021883813231684,70.40970396855175,1.250311301324333,-15.18478914059009,-7.49580041675246,-7.974469381557717,-13.977323108561825,11.080786661372152,13.600453607384777,-10.131029385879273,9.974470022396952
0.024,-4.355582661730057,49.76674765362737,4.774585977243537,-40.52425507426423,-16.839619796677308,-2.0757230711318813,-8.802939807020627,18.223105459580797,15.506016866228308,59.304102704704384,1.8456257093542738
0.032,6.002141235511016,35.255535448802966,15.426866310652304,-42.02984569255065,-22.309528857875172,5.8574426713527785,-0.3086276264519312,23.836380044119867,-14.053286412695865,87.49835384587003,2.7622815908549883
0.04,-3.640812122424545,40.57133255083495,14.785252963237516,-37.691814979679066,-16.54515902076619,4.437340361462839,0.498182722311516,19.965315492861993,-36.1958472806398,49.36106297179038,12.287775849303717
0.048,-11.605682574890535,52.04354002303814,6.026773425408287,-57.498359472843575,-7.081025783862811,-1.2218494656272483,-6.059325973152092,12.299298712757384,-32.309198062211074,-0.7414956112885696,10.779942388297423
0.056,-14.849676480906261,68.57193592660455,4.253409720807752,-80.35497696108403,-1.8178603019922275,-4.052489091237575,-11.614079370291297,5.479727524781265,-18.37348021273059,-37.08232088644332,4.510990070550047
0.064,-25.761629361205408,95.06556323652377,8.24324899637407,-83.581895892155,-0.27516826162046293,-3.3885341906228366,-9.326127606644919,-2.5315960879837833,-5.272370664699517,-69.89021866933345,6.536891026928978
0.072,-26.393210973904335,105.94339770283695,11.595150991886443,-93.50046911878165,-0.6814984342253148,4.200431287952246,3.0056242330365137,-6.21014039343869,5.479330778617616,-83.64495834609788,3.72044481653149
0.08,-6.764780264557492,79.62551471837827,15.514748274075563,-117.90289064854208,-1.3527865416960947,13.678218512289865,12.96530971020225,-0.9587659514860983,-2.9108643265445124,-73.67718121505796,-5.15782580714943
0.088,4.867341596816227,38.128149805852395,17.396252373551135,-119.0765682407243,1.3101000875636584,12.62756127806613,8.505046688030818,3.527071800671621,-38.608688968995956,-65.97761002655855,-1.7356244697821788
0.096,-1.3864857667589672,11.558847749832607,13.774037109319003,-105.27540586211894,5.304721193627867,8.761368522886539,5.975998171532111,1.8503308335950372,-70.25311363826681,-61.33150594082106,7.515689799512171
0.104,-0.757508124869398,8.92105247560358,11.981836285964308,-118.20216618340729,3.317189335913955,13.825373845397936,15.429497635745857,2.376862761788758,-70.82554879065302,-51.385657289001436,7.881146679781688
0.112,7.514733738687315,33.466068423702,14.220223024059731,-130.4966126237472,-2.751156185385789,13.87455260287026,12.941806441533762,3.9857472893422763,-58.789723929591794,-56.28466490869982,8.713090184676705
0.12,0.8727080565910061,74.15309392887947,9.053350744050316,-108.76421302029112,-3.5164312787103085,4.1186896257639685,0.4822170758583589,-4.555299535391465,-58.53319024046118,-75.21211823615124,12.084354457816273
0.128,-9.732400309276807,95.83566043908667,-0.4213538586993951,-94.40886749613242,-0.09662095675169245,6.0076779759151755,10.24074545792253,-15.407176135106992,-69.47492384144876,-80.37335571677603,6.949215568210934
0.136,-0.32656230896208654,82.76286085329805,4.050892287858181,-97.49232951802497,-0.9219515483012835,16.9343143204611,25.916030293252472,-9.081823958469629,-82.8649947262235,-75.84656683324295,4.854289051094611
0.144,9.095899370749441,62.89222350344343,15.673983127665073,-75.72427638831054,-4.337360779022018,13.227668859333662,14.291229996743386,6.465647641414566,-85.09018813195821,-75.50789566435454,17.63741756404297
0.152,-3.627997157146011,63.29487502599692,12.057404295630146,-56.77920172632288,-4.3479707483871834,3.5654140674566754,2.332675525754673,5.6476972350493115,-72.7435758454552,-70.6357682139169,26.878585923900992
0.16,-8.35284932080808,80.56146610307968,2.3122617683088063,-82.87030908929405,-5.6090420837052815,7.096338023762834,13.389374378229949,-6.781190677013405,-69.92770168237772,-68.64891218183953,23.617642617282275
0.168,12.59449021815787,103.83012557286278,6.450069322026595,-107.62218700972336,-12.851615673600582,10.674192492607341,14.155334953363791,-6.884686596697177,-79.0640907323236,-78.80633994144124,22.500009715680594
0.176,20.47106006464938,124.96214895817978,11.09317409411882,-102.30092336843796,-16.3630609615267,2.5775124039006077,-4.911526639995075,-1.463037224394024,-68.82806709459426,-76.9116079598631,18.186084737088095
0.184,2.5096137481441727,128.31868714782271,1.5412076757919129,-105.1604921633238,-8.496981374579512,-2.0004602018925413,-9.495301733182655,-8.896026493982987,-48.88181177128783,-60.07974100803356,-0.996380247805998
0.192,-5.058893572327898,107.60266629011444,-5.374671142973963,-116.89154607351853,-0.015632491556534657,2.8894330729442705,1.5697669022107172,-15.82030175698311,-52.36996722545282,-58.40653685654383,-12.836183355804447
0.2,0.9477404657260868,83.06098798616712,-0.1939647188900693,-121.41733528734345,0.012061234034038913,5.1934503548608975,3.3803235012974757,-9.26040217390992,-58.78433217323344,-67.3762721563764,-3.6150196779723087
0.208,-2.3375479206903584,75.71549306162966,2.5748030013994274,-140.44124140963132,-0.8906141831537456,5.139281478643419,2.1072732243117307,-5.401297386955492,-47.89478580980491,-67.72031947614552,1.0926364687284493
0.216,-2.7311593532976146,82.21174009180571,0.8141463795542909,-156.61101259817792,0.427809498351112,9.371615054524028,9.378469184857257,-9.241051420936252,-48.55801815829015,-73.07066478218024,-4.683460828334882
0.224,10.37864622136536,90.41395527279342,3.9692593800493055,-130.59798007079664,-3.404880256765664,9.982848782838078,9.457209731317544,-6.778147296596196,-59.840435048046594,-85.39493184323268,2.2903998213170897
0.232,14.471039878307197,95.23216433758805,6.644485838417998,-98.76737503229641,-8.840486164347725,2.413818049008644,-3.1495692346153485,-2.6493931904980634,-48.41367321658697,-81.24422219262696,13.048076742265982
0.24,4.2334579083810295,90.38691596306248,2.9762808659847253,-100.64785193760568,-6.9754954998242065,-2.290488747564845,-9.368336565364428,-7.133132866772794,-28.43780584282911,-62.364982516527014,6.1561486590508725
0.248,-1.3929364324074598,70.51177602399218,0.6513615324209394,-103.19693527052252,-3.222937203068356,-1.505131695854827,-6.6598389488963345,-11.190264874357133,-26.065014818747155,-49.31848129683203,0.32007442458139335
0.256,0.456263492357894,45.831889810315495,2.171373440308327,-92.6065689925723,-3.82199432663236,-2.9054983651812476,-7.9263403633770295,-9.721147469990987,-25.496680056879267,-47.93185762978005,10.344382113472863
0.264,4.207027687975853,32.362154960780856,3.8411401945996726,-97.40996524653075,-4.251430777462429,-1.4810429617855978,-6.212187070342076,-7.934350308269908,-18.452495350801716,-52.12353210361906,14.069352630268455
0.272,11.957163107794749,28.6259122124221,9.507596802379586,-105.76872391071599,-4.618444301652015,8.070234120367719,5.670213098561263,-2.8781085510998268,-18.49437895890846,-49.80587229358475,6.29823876840107
0.28,19.241490016689724,21.895653927631965,17.77113108477443,-93.78051762358447,-8.006168918610078,13.435204371953988,11.01028571959478,4.353945153761254,-20.396283350649252,-38.13464565611208,6.409942850377242
0.288,18.204836218923276,11.321270975424627,16.44595675147657,-83.57264896694241,-7.727984064311604,8.88682552275556,4.619161977673307,4.00476110155436,-15.460025369453904,-35.21876904179027,10.504097900246641
0.296,13.617656877369328,4.409522839673463,8.02942339595448,-91.01522576573554,-1.4072694736881142,6.5835534239635995,3.2401004656185908,1.7284641954458897,-9.201683444795133,-46.418408298057585,5.478043121529551
0.304,15.858131410957323,-0.3201909239091257,9.114923085490178,-99.99891645587508,0.8767539352568112,10.868181634233016,7.955518225349129,9.43284592925693,-0.48728150250128044,-52.67448805431306,0.6709231724268889
0.312,22.761036053777175,-5.611361083953574,16.52652043057677,-106.43258888576459,-3.063346017382117,12.96472431487975,7.21864220947478,18.546995764057435,9.155150315347221,-50.15467998716571,4.776906848300561
0.32,20.1521079787788,-3.6328833395715043,13.287623491001785,-110.00209157213764,-4.185109912184914,8.705238382114004,2.1351993571667323,17.854711236940922,6.58193986354388,-51.38018949038085,11.835944554141605
0.328,8.08995638396247,6.7240858783714055,5.981949480940639,-98.59181085712004,-2.06743807654974,3.5238635720170093,-1.2217065749173004,16.06393769030177,-4.446988380481686,-55.4937206169291,18.30566125533003
0.336,6.547321364650968,10.826825821698339,11.446985372220823,-83.75128146353268,-3.915642692829038,6.005892141772954,2.177500667716694,20.69277739936426,-5.718767640200568,-55.45099735042743,22.584321703732318
0.344,16.412791158649817,4.955006249033435,19.83009205670367,-84.28587195768148,-7.89847914908111,14.589256759498799,12.852480722663083,23.13483933328082,5.4361500234733455,-50.43630093272289,20.29317705646773
0.352,15.741685007023165,3.350204750913056,15.139449406271906,-81.55866103041484,-7.110364543481289,15.211106248161252,15.613712503703184,19.1771094382271,18.577865778868855,-40.97288384933676,13.473396222106649
0.36,8.913560101259664,8.1588020784853,6.836031186095373,-62.50160323978529,-4.201052499084705,6.856829433595879,5.002514180072355,14.754985649773516,24.382348355869336,-30.988557206865075,8.033943546231269
0.368,17.174897598865112,8.692674464828759,6.225809622666126,-48.72099346115724,-5.831046502705181,5.494389760990437,2.4633156694883422,9.8056558984832,20.34806599884807,-24.286875758741783,4.488857668481014
0.376,26.428360353801093,7.543277004494865,7.652091900563304,-34.95263617078571,-9.003565147486388,11.123771237621817,12.208032087659166,4.369068971081687,17.087063095848176,-16.618907408768827,1.9965413426646028
0.384,16.79930402858845,7.690235857898885,10.179182049559474,2.1572736200750904,-8.781660898556588,11.219462930994629,14.207564480888982,7.524640643320367,24.766302313276952,-3.0064281216605777,2.686476424281134
0.392,9.400916738836612,-4.172957781336473,16.833408584238093,33.8860460012655,-9.328387435430878,9.637460867922677,10.63198178950146,16.614828715097715,33.65010969770818,15.621009758346169,6.122906444158855
0.4,16.695019404778755,-25.019342612953498,16.17878308409451,34.66163004922767,-11.462742559538583,9.533833942375798,10.491388553179588,14.486683584651837,28.997465430303098,34.239411656640165,7.0964928883256
0.408,10.325340659043459,-28.227003228646822,1.957791706715052,44.61484853241516,-7.956334077694199,0.03936762145447485,1.171827990160811,1.2687366520826797,15.13649706719464,49.255675230607444,3.3906014973674776
0.416,-10.431034044189197,-13.76673169461444,-9.162435424071203,76.66258510246769,-3.0986850590052972,-11.915625325833675,-12.101063474645285,-5.018703367723082,10.367100719363448,66.19742300853608,-0.7180494314936567
0.424,-6.35046126050135,-10.140255058510188,-5.458514090362985,83.94442549572979,-8.559852306900387,-8.38263865338668,-7.938438859689501,0.4493592186706406,22.64624382409678,87.5323307146116,-1.902498963266405
0.432,17.62639041137692,-20.828169389607087,1.3772333993716348,69.21838043530559,-17.35875171680876,-0.6446484717863878,-0.6063574522580175,7.480650939600636,34.58855643182026,97.86693195442302,-0.14507891971015577
0.44,18.82361845813736,-27.192353901490936,-0.11125800768790503,71.17600960666971,-15.365727483062958,-5.080554151840257,-7.918725167978981,9.512641921178416,23.80391212596069,87.69139503682126,4.6627771469550625
0.448,2.238228165196593,-26.310978257927076,-4.620628162687129,69.57577645127571,-7.913575480154158,-7.625483988006842,-7.9810221563838954,6.478615377712101,-2.3756100615517366,69.7402649183206,8.932242280130502
0.456,-2.8270271764810553,-18.518842323449565,-5.13235116926031,46.987990938870006,-4.819526173819814,-0.4839882215901612,5.294353689008724,0.0061087215256964,-15.16836825423474,51.15331585650968,6.691862638960563
0.464,-6.4547174882973515,0.21401113696748245,-4.868594090954254,40.92580539935666,-1.015392496113158,-1.3699691633136093,3.4715316231677087,-9.009712472628253,-5.044344947494928,26.143367527709962,-1.3827988327745206
0.472,-19.21399077951539,10.838968052735533,-8.168596452889478,52.88773238353966,8.325336393978882,-10.816265817520662,-10.937211451009345,-18.811013595321313,6.937027376907927,0.6985457541018691,-11.141008808502423
0.48,-25.504159473354843,-4.541194378325036,-12.612775083907925,49.703871781585306,17.807478951761244,-12.22411341765212,-12.264722325436002,-22.114995574323903,1.9603846468407728,-13.533114949299069,-19.05537589927305
0.488,-27.457032248425516,-24.450318020726083,-15.05882513950157,44.749426824060166,22.72638424290873,-9.563415710183737,-7.490931735784594,-15.149674260308124,-6.280460033377375,-18.22047388925001,-18.61017769442577
0.496,-33.00843188725151,-33.032738779230264,-15.349843330630154,48.74783495761828,22.37893726305053,-10.937430621533139,-8.699867024793482,-6.909879816514293,0.2329531539123298,-14.708175243885167,-10.380332140218844
