time,C3,C4,Cz,FC1,FC2,FC5,FC6,CP1,CP2,CP5,CP6
-0.2,-26.718744133954424,144.85989910983196,-20.07650172037014,66.83894987365943,0.6920742016081998,-2.849059165461895,11.067424122348584,-18.2156470611474,-48.516226495474044,-55.48657626630295,2.152596793989106
-0.192,-16.202710231533747,125.79072630975526,-11.13469082496579,26.22472223899975,-4.017561611984753,1.931624962653161,13.317653154859823,-17.716406692273246,-33.77733837711176,-46.568993859446785,1.814045487589276
-0.184,-20.049908688708648,117.6177789026972,-11.556493385914623,18.367861774630057,0.26021886542905415,-0.934737082089549,7.222920044260744,-14.015147634554236,-35.968530194023316,-50.87799340115606,-0.708814545874329
-0.176,-21.023026023071168,117.88040519077079,-12.159421938848112,25.228461400160462,4.919079295787945,-3.4402703554389475,1.051885658298998,-7.764364518619913,-49.62468525200849,-53.899619332664194,-6.679257436760707
-0.168,-5.767678470676002,111.41292430802417,-3.9204584925584425,9.420949271075573,0.5961926831483504,1.5886685453948095,2.9425287388061356,-1.9563121142381423,-51.45915204561066,-44.633777025025694,-10.534619124378237
-0.16,-2.7744836615818094,110.8618057710199,0.7892307555586799,-6.502493508817218,-4.549098828302366,6.890726689857577,10.99522941226465,-3.3294569170588693,-46.59957301920477,-39.43503644600567,-5.670264104437288
-0.152,-24.917287743913114,121.63297004915323,-5.9636414191037215,1.8925774634013395,-2.7579329965519817,3.1022860452220584,13.001632506755968,-11.304060571278567,-40.412216701924805,-47.10202194220977,5.02297329595751
-0.144,-39.022407320300275,115.8003075663078,-11.599877318522065,2.6085058467968043,1.2660621084846915,-4.548035839418108,4.743344889371538,-15.982199431239085,-23.303614918193862,-58.05319922868487,10.920262165527117
-0.136,-24.475425730643106,82.08045173223017,-7.654341516366857,-25.85331008984917,2.8319854345642996,-3.333948261883172,0.7764666370609424,-10.294237975758964,-4.521928529122703,-63.76107898977777,6.822658056832155
-0.128,-9.23033584863884,48.55279893478208,-3.502035278693155,-48.52416007831068,3.8899315690255976,3.3009985744387587,5.69934940709618,-0.0790415730188299,3.164339871533781,-56.9422359153454,-0.2795736588472521
-0.12,-11.93311710590695,32.36580866646195,-3.8001571927904445,-43.558156524119916,5.321499408715693,2.1707887163572996,3.266841105963403,5.509069621812682,12.219742658897541,-41.52644357829737,-2.6118873207896636
-0.112,-7.320465195430001,19.767791489918597,-0.07247360192831931,-33.914100947211736,4.585597809259569,-2.2088212972962697,-6.730613820275245,8.445024386598421,25.23210606948973,-34.988918283089,-2.9526459279641712
-0.104,12.235032345311957,1.26694721486195,8.476255930094617,-26.652127333564245,1.7419510536786003,1.7932872239417463,-5.921208133310686,13.097198654824705,25.777790686602614,-32.26417217693134,-5.31417537966317
-0.096,18.892774680043363,-19.63969193015524,13.516622084121128,-9.233380652925199,-0.030181171798196134,7.598757940675279,2.553277588642567,15.00782961041078,20.484640115169405,-14.382783840502379,-5.998702374222164
-0.088,14.821781777029859,-42.13650568875371,14.349397343736698,3.1153702304113464,-0.8108522619261997,6.683292774279936,2.7947818704705254,12.904983168169165,24.20572327336741,8.227162707508276,-3.12839582307406
-0.08,22.799421176058434,-60.89282833991106,14.706972921174497,-1.396194172466574,-3.6849508466121366,5.894907719329543,0.5905989078174971,13.670955491705104,25.961747499599202,22.188171139830906,-0.09724523340652644
-0.072,27.41071379384972,-65.57094952006365,14.585648133454056,5.046622107203588,-6.885015085442443,7.24833533312295,2.908673916538002,17.220393722064664,19.238375778325796,37.18634721551457,2.705585133262549
-0.064,13.40194052961598,-61.856860975705075,13.722409358791014,31.65751351485359,-5.58776643196122,2.3519409069539985,-2.164744172373231,16.024034079510685,18.099611836497466,50.78092069668682,4.25298199926401
-0.056,6.714844364212208,-67.26120085551936,10.964836435052526,40.131679960041474,-2.0658970460422013,-4.843920343749099,-12.873789650282587,9.690385959342091,26.158754149514202,55.16783986768589,-0.4174931606566644
-0.048,18.021864096330678,-86.0133858816403,5.900030062124588,15.988969682284988,-1.8323775360568515,-3.0675840219492487,-10.49667238269445,4.510297883878327,32.82252489098962,61.99283446888102,-7.278167855323215
-0.04,23.304677485840315,-108.71284432504336,3.6916172697258864,-3.054271004712262,-2.4280469240130795,2.341811417252067,-0.6053595831811971,2.6989895915368214,29.84713324101522,70.1662302938338,-5.994378042464333
-0.032,18.415014370215562,-127.30685265074491,5.384236897495685,2.711435544320462,0.4184025515667325,0.44505044698434865,-2.822617443175886,1.6749946010780985,17.147448085540205,68.48009052260001,-0.6052448142650568
-0.024,16.827495424152588,-136.43462183549082,2.977475789430584,4.602494628099176,3.2835870253703923,-4.420993343991173,-10.302960165867628,-0.802273423905628,6.909732443601529,68.65162974293648,-0.7736137082188597
-0.016,12.110047421133615,-132.36414141102665,-5.246914262006328,-12.994194389509037,2.922828889638824,-6.2559460709236205,-9.68851016683221,-5.437172507084596,8.45156292748956,73.81429981841947,0.570411891597777
-0.008,1.0132558505400104,-121.42186553214601,-9.441010085400011,-24.456138794043248,1.6570727094939572,-8.67984147809889,-9.353119756686405,-9.163350299923179,14.475669312950075,67.21616618458185,10.12415823632942
0.0,3.4667268400238376,-120.2788662996143,-2.9367159432919494,-17.697586040408765,0.26319713491952823,-8.75932003616356,-11.973012685876053,-4.394486050830865,23.986362692090797,56.05115762696004,14.658805449996771
0.008,20.939819226882666,-137.69074139837352,7.167131918526551,-15.04260786975557,-1.1572799012960124,-0.8437179622096792,-6.591731011303725,8.099763009654138,47.35414540064615,56.938095548997765,6.540142581969237
0.016,23.628354340801003,-162.3997945631144,7.283587251249094,-20.639749960749462,1.2354877929436854,2.6598442646041187,-2.492223835280895,13.798453804573633,77.81839129445203,62.55972238148366,0.09091334878356136
0.024,6.0859351489093605,-181.67178327730883,-2.3694377035074656,-11.728466846653037,7.082256847108198,-8.913355072968539,-15.776803881052103,9.788792847585594,98.05103098714721,65.76949898921566,4.639956186321896
0.032,1.895789305326295,-201.4153667016966,-4.932747537832884,6.670592061535693,9.685243981215706,-18.8501872737302,-31.00950082482749,13.062195305095575,108.16406928555378,67.87709692799923,10.738174856453536
0.04,22.034217363179287,-227.7509471558457,5.120713625670063,5.581358438287726,8.27460490817967,-12.604416903651664,-28.328621341457012,25.425664521347457,119.58897880360833,65.01613964867182,8.031987795763994
0.048,39.28716540041991,-246.78141300538792,14.082196117174277,-10.997527274249743,7.797121576886684,-2.8025090589373414,-19.149133281789837,30.42784397227956,136.0817904273794,61.33775860212707,-1.9059351259991228
0.056,42.60693482353517,-248.5547264546155,16.071182229069187,-16.4884643714658,6.684110012324086,-0.8964928274935511,-17.645514189385903,29.98381367405901,150.94516103479725,65.23394333544076,-6.323674507220045
0.064,43.18988939856511,-245.38983356621924,16.858489597443917,-11.044757953391812,1.1116197594052517,-2.1080598013950915,-18.66613609790287,34.1054735744609,159.72245257381334,73.8280163201121,3.6672379303411775
0.072,41.49030953344441,-247.03352307379762,17.414783138182926,-7.425747126843258,-4.8356662352333055,-3.2048052572930326,-18.286130564655625,35.52968350586936,170.64136474549005,84.83650861247439,15.941356963333456
0.08,39.16494021833959,-249.98354996944565,19.450744213634593,-1.477707040500543,-7.088099354403251,-2.890317983981711,-17.135863979270553,34.03487325276216,183.49757507778628,94.15992021141258,17.765877704463026
0.088,43.07709229108799,-252.51938138281963,25.69839829187067,7.330747423907488,-9.000386537882678,0.2323477138620206,-13.856338931758778,38.551282960964436,177.92978810395726,91.32917420526582,22.159973203210086
0.096,41.362176536890054,-248.6370030572976,27.680885903457614,9.126452119182467,-12.595219479122976,-2.1534433711598573,-15.917340016588795,37.91540028195394,156.09351757293248,84.53502645075258,38.41209822591755
0.104,29.59540751927385,-230.0119782684101,21.4096439456828,7.546303075184575,-14.797902599924859,-12.350017842278598,-27.484860461551634,26.072912206219772,149.84566890542345,87.35924994425105,47.11546717572712
0.112,29.476194592317583,-211.81762050041115,18.433655172408802,8.507533242083278,-14.367254168893735,-15.725784811813934,-33.41199372301076,22.362690973291123,159.0877655194049,87.04822048185642,38.71288146951444
0.12,38.54603359307777,-215.68816927785,20.17280264058008,4.575335896456985,-12.034129796708564,-10.57785615736889,-28.29738120621019,28.56632585718566,156.09726019906248,77.24907613253848,31.745296909584226
0.128,32.80417764125123,-234.6068714542969,16.197516775610758,-5.5366808139600305,-7.467205389555758,-11.11668254198497,-27.118791117040928,28.536363961427796,150.10836246489478,73.00117388117005,34.13329219036983
0.136,25.238220422204574,-251.2195970020783,10.808626457159647,-22.30227724292467,-3.0164921977961208,-13.151570346402236,-28.48606765644782,28.35953122219139,163.0149280328465,69.84410630029166,34.06909447979285
0.144,34.67382877046953,-254.21761161869827,12.71408434207471,-54.39665130444055,-3.9365175104409835,-5.172394182363639,-19.009060135605147,35.01381903710455,179.79370135677803,60.8289076939672,29.53187677822351
0.152,39.513010103983376,-231.94532950410283,15.570873398178506,-79.30054838860086,-10.91979389677456,1.7894323172340225,-9.185615482399207,37.16164522533039,196.304183684111,62.35342722844133,29.82945851100142
0.16,32.521953061558676,-203.32162868462478,15.546779651601685,-59.90756895910853,-17.61400534002721,-2.1330823793653035,-13.119193627313551,37.04684842890585,235.89845640415737,66.83236771899058,36.05460849189992
0.168,36.976837236889054,-211.66303095320447,19.168498944306403,-20.12343240808235,-17.58501165670768,-4.8134552546803295,-18.47325993730044,42.98785255359464,274.9325893412963,55.20086136888081,38.45373703440692
0.176,42.72894185596389,-248.61539435286952,25.160515065775943,-6.305601702272577,-10.83024019845718,-0.5635329817475856,-14.90748005647741,44.558528713893516,267.72217662583,53.45596828262863,29.75532980189154
0.184,31.015078363530453,-272.05906577631634,26.003042974260712,-4.777687960450811,-2.953916366069897,0.4753467823135627,-13.229425098906123,39.86773906957987,245.14390144045817,74.47325519191214,17.220340815018847
0.192,32.04987600307016,-287.0530801673731,22.319394245706953,5.743076863971891,-1.762427918006695,-0.956466437259108,-14.951696574849501,42.91546000134028,252.0543237755803,90.20461960426847,13.802902593468504
0.2,61.99725249495726,-297.20519348159064,19.774869216484298,4.820526244021321,-14.213195379201242,4.1343178903739,-8.451202811827454,51.55843025029466,242.59256068867185,124.14174062134565,19.63269828834991
0.208,82.29341050955766,-257.0476352755797,20.469896875841993,-9.514743738917087,-38.61932908542384,9.631049047906595,-0.47113876706693014,54.719217156726145,173.0782607826602,210.7355047850731,28.25093505297924
0.216,77.85466769025213,-175.01771535520174,21.062232032420717,-15.914272354693066,-59.5273361661086,7.262130315470586,-2.674835031019504,53.82137954206764,92.81669906577281,279.79991103857043,39.34519521269473
0.224,70.70373688448748,-130.58654995420844,17.90389301050896,-17.334780024490748,-61.051476821543226,5.80846096385335,-1.8030480226357823,50.42992535686226,43.232478669764554,262.23935308185514,48.20999114239415
0.232,58.5264412646357,-136.21468622821124,15.230539748497335,-17.541750151663262,-45.10593789536505,9.517783359611856,7.273911518730656,40.426536936074505,3.47814002184565,209.112996915744,42.609612656758486
0.24,37.27660771765274,-134.17096041100706,18.214942005400584,-10.615261943384116,-25.971607974904128,7.039643156382672,2.3857799757682887,24.436799558074828,-28.61959059873344,173.65654604915906,20.399503836273983
0.248,27.88231841636989,-114.31268763169791,20.77796289655706,-8.479108329278473,-11.205761901690162,0.9182251915193167,-11.346934413310374,7.575780641906104,-37.60981839687515,134.59262313127462,-6.219445595591476
0.256,25.42675759101057,-97.44409609845194,15.279404930416662,-12.885506785009703,0.21421228245575188,4.531286840824826,-4.166401919185223,-5.163905532174939,-45.95995120405811,89.93247076090114,-23.439467790465628
0.264,10.76492586313668,-71.1494106868912,3.9635037597681446,-8.729681998437984,6.795846288699349,8.559013036579143,9.952387230549736,-13.143032599976173,-72.55452761458609,68.87666629934739,-26.32234212036241
0.272,4.098521091605035,-33.74835160096065,-7.4119574133609225,-6.977288904951194,4.612249348378227,1.9276793391506164,5.023411566600545,-19.48684036986549,-98.46978935131732,64.21486682990304,-19.15032536726648
0.28,16.596204649416123,-9.467413888361296,-13.624868570598105,-13.12461712532229,-4.055064050104793,-0.24282910444996142,4.332652592842668,-22.15649758103044,-110.40991099104424,54.81601762037433,-4.788455740740137
0.288,15.525001358273132,8.471650458642996,-12.367846217560887,4.702715350074483,-11.436949054747995,6.536798526868135,20.370139506614315,-19.21168593431338,-111.14995522365676,42.30657115620927,15.276685314065418
0.296,-3.1627834178351675,39.56343454106699,-10.428872174345507,47.68425538883655,-12.586766722710086,3.992922485923556,21.21280055323319,-18.386217443865007,-95.54960627474586,27.09851820814334,26.756816514579608
0.304,-6.762537060787978,65.9201685386693,-12.755180304024622,72.52906862702922,-8.042331079816167,-4.990240766218389,5.4406888879239075,-22.163845350155615,-62.08959602388721,6.671549721156746,14.076259417213905
0.312,1.8540152062878497,66.69958227750583,-11.8079530769801,70.86101024780295,-0.8894669188216137,-3.2551244384430547,1.941696241432089,-20.097273267000798,-26.17690496899004,-4.455625955926087,-13.351120934924161
0.32,2.5872198287387076,48.73483941727779,-4.900993138317061,73.7861840645666,4.98772778227995,2.2185240808944937,4.460791346544857,-8.067840867733997,-2.889150047747507,4.104171578478367,-31.902867810233747
0.328,7.016476838933045,15.961739749132777,-1.782709963241388,92.11171297014484,6.861997824501009,-0.2904059568003295,-2.9838833541754033,5.745409358874567,7.985535086658635,18.817167078324335,-31.9884996429021
0.336,17.855201682348373,-28.328496430986274,-5.501340278415108,109.63839128432109,6.566455938863333,-4.737335314309258,-9.366633093440985,12.943567839179893,11.18029130700615,29.64658583377058,-21.58442052775207
0.344,11.590347814143417,-56.862929840051144,-11.003400326785847,110.95271903098944,8.296453000916046,-7.341813637749243,-9.456150684676057,10.392583456347706,3.914192916094771,45.76706648114035,-15.124111053269663
0.352,-7.691107537152417,-50.40937419985682,-17.75641405061478,97.09195320954119,11.517230550084701,-10.472785047231676,-10.437444481072005,2.843372143441444,-6.479104723758525,65.89972973374547,-20.3064846395034
0.36,-13.253654408330314,-27.506393882520253,-23.312974640815955,79.24852292577722,12.493281420578677,-10.651109428387569,-10.02326205066297,-1.1545373040020832,0.6686542068920359,70.27902963400658,-31.226201254249997
0.368,-7.782117476056978,-13.875920225587489,-21.768145698971324,57.092971158465154,12.689788000128829,-7.360385104639218,-7.846106562528876,-1.4647568711293655,18.07078231491199,55.85182451746412,-39.9668815455947
0.376,-10.673796134755339,-15.742561155375977,-17.556906754482306,29.069283183600753,16.21593708834451,-6.957776503004777,-10.263494784742711,-3.7141016617903855,15.480794094934016,41.72764141084985,-44.29061336786396
0.384,-19.616139843857532,-26.95714406984339,-17.833726418546938,14.83658368369743,20.327130224992928,-10.26359995376915,-14.462056612259877,-7.401898160774057,-4.382365895498599,32.965325286174455,-38.933639135342915
0.392,-22.282038552049215,-34.80464947946296,-17.01244352427044,22.443926805092683,18.91417968472864,-10.911476597140627,-11.992273950290683,-8.326903817992697,-20.7227232702816,17.249371440195432,-20.10292106411794
0.4,-21.313160841099688,-27.789771391682518,-10.858581493162825,25.232488087464137,13.410463438242184,-6.592561508632086,-3.3223796187929966,-6.956458391274446,-34.46695290473397,-0.8703339042091088,-0.39324290347035085
0.408,-24.07417494355894,-8.951192999900094,-6.655836743505981,8.597128066474792,10.238142384592237,-3.1892935456434346,1.4280651826463464,-6.959950497278752,-39.895446173884785,-6.517933405805473,3.0796029639025764
0.416,-24.288752437318358,10.401426124986491,-5.895589047168745,-10.160606463968673,9.80770871230473,-3.528626852312076,-1.341452276940219,-8.732609025223159,-27.003326512469574,-12.972134774388383,-4.042790221670035
0.424,-18.711946848540876,24.342521352934043,-3.916230424714611,-21.646170226988517,8.532703032519327,-2.406932041854781,-0.7544748920198029,-10.565963210211958,-17.422975786401647,-39.048115455936255,-1.5335471907759821
0.432,-22.850535597191374,30.791365133518497,-4.23585762192665,-34.055842489225036,8.200015712573624,-0.783922650284955,4.6928852034599595,-14.624054211279995,-20.29153642346712,-64.04176062668273,9.604615943932178
0.44,-36.77591915052376,31.57686313458393,-6.540455503417657,-47.92842510865252,10.069012652305814,-3.687674224752622,2.992484009417739,-20.804742243870397,-11.206637868959794,-67.5820827695245,12.98133185079846
0.448,-32.96895627484183,34.68064204860066,-0.8647546856445875,-53.73701773432747,6.841614023180674,-2.972965613831288,1.6428861359828049,-20.08951485107092,4.799027236442932,-70.97938863542467,14.603926057528165
0.456,-9.273206081124885,40.1445798277262,9.76287550348492,-49.29858799622287,-3.102530353125062,5.597947087702389,10.87081909940203,-9.021258095135622,11.02894449552286,-85.72153524059408,26.599336616442038
0.464,6.200760667870343,36.21014164585503,14.113040255386892,-45.43895977468146,-8.070659240215788,7.259285480067794,9.506719780596322,3.907235729763617,33.211718671899035,-91.53936570721412,31.8128983677675
0.472,10.11863996618376,21.272356088528234,17.588906400547955,-48.42869782042609,-5.304247801830675,0.8825250047291857,-7.8476348497845905,16.006760755963462,80.72700554203296,-85.80305741204937,19.85802861097741
0.48,18.459995307640803,3.6901971315526727,26.554172409202504,-51.649625292524114,-6.9609490776120975,3.376440977660405,-10.55324848805598,30.285473431353072,119.12262919077905,-78.85452090240285,15.400139489492217
0.488,31.574136488434068,-19.76052711552146,30.641133138264756,-60.09628095430335,-14.924345253517712,9.994683158527708,-1.2333467056930982,40.723502621925974,140.24134185728963,-64.4735374126092,26.476135495495765
0.496,42.44619709178695,-48.504376951440214,26.133388882115494,-84.97628564139266,-18.79710329556969,6.057846383377697,-8.225716789158277,41.078810866008304,154.5517129810658,-44.802901595965636,30.689339182349947
