time,C3,C4,Cz,FC1,FC2,FC5,FC6,CP1,CP2,CP5,CP6
-0.2,-26.676843251301552,53.770024235074835,-18.89276845250162,30.190256736156268,17.971544505845085,-13.634951099255197,-16.478497612581368,-11.675621936734334,-64.22893911030059,-17.813211841998072,-24.309923483311298
-0.192,-13.020451582698424,50.485252319494236,-15.61901623432986,29.886944373663937,13.71472236412943,-11.146344471404678,-14.454487266089806,-11.415254888663096,-66.1822589047475,-19.244729547083086,-21.40735185296955
-0.184,-1.8228396733581442,49.6055199555206,-7.586452803643518,39.20224945908631,9.847085732544798,-9.418192413911818,-15.879009321709422,-6.62512469748816,-62.56656187373955,-19.224537648541443,-20.24644929566194
-0.176,-0.6630757037656883,47.10901799479364,-3.2995945773426842,30.11921509157074,7.0805861142678745,-0.39105308824778595,-2.390705650876856,-2.1181419599782605,-40.913861105244,-10.740099554078139,-23.13683902288409
-0.168,-1.862450366916073,43.32449318215868,-1.8618756467446167,16.397175268901258,6.247104996499495,6.7507364911256165,10.187805655942467,-3.835474823387619,-34.55434283736433,-12.316167427724038,-22.5012451905607
-0.16,-8.507319259243944,42.37991036389112,-6.441268194679311,30.781828110359516,7.37372859720655,-3.8200912773126148,-2.840804797661944,-11.10191626937904,-48.09219519589665,-23.28231733867511,-9.939665694351605
-0.152,-14.794502585557815,38.08470492943769,-12.253098886945335,48.25672002646294,7.033215845934247,-12.696024990450741,-12.995704971469964,-14.812003222279753,-41.60892016151832,-20.63083264464446,-0.6217250567187216
-0.144,-8.991589562372758,27.079745761561384,-7.643465584733191,39.89462087373733,4.548594386044271,-2.544966287901914,1.2281568271113321,-11.688331671729015,-15.567081051852453,-4.963781698077443,-8.952046439026084
-0.136,0.2537153417286951,15.629170757843438,-0.05031752111195499,25.968238346875086,2.9831840145631308,5.497969650613666,9.701212921723595,-9.061800114385747,-5.967834676886017,2.023144165433691,-16.469634911980904
-0.128,6.733767505462557,0.4771809661730692,1.2672322350062961,19.95262039837177,1.2271724558119197,0.1357169301988173,-0.6456005743940202,-6.474001453611766,-15.137960346170805,1.8575625291668492,-7.496214065954803
-0.12,12.554475093994313,-20.984539675486616,4.702998227194384,11.39860659243755,-1.7981521805622314,-1.335691105783672,-5.283293408434702,1.6395643073855983,-25.823058909680995,13.647515821502129,2.1175385869032866
-0.112,6.498238985949551,-32.02649014753253,9.265983102560163,3.486457071938532,-3.0313520004767693,3.9616250343722,2.825508571000219,6.598920089641791,-31.903268874980586,33.3086093761309,3.646530483889345
-0.104,-3.332682987093454,-27.099434914441662,6.968550596923479,2.967286749979529,-4.383129274024322,4.835466780316015,7.773430247994955,3.0833162031081143,-24.685747425796425,43.13497332025632,6.36023697996856
-0.096,7.641036271805177,-25.7669835136654,6.085486440199626,6.769648814069239,-8.49238464993123,2.282440161747246,1.9742658582853845,3.6543641787197045,-1.134792881140077,49.550782331105445,4.336572725685658
-0.088,17.545282751851317,-35.1406105530501,6.3885815980412035,9.070192411843754,-8.952754507941835,0.5459049952679531,-5.022750813702753,7.975122707018209,23.280588301942704,66.63761256367289,-7.8858252175722985
-0.08,1.7668934173194883,-48.961956769597286,-3.4521967610944153,-5.043026244226945,-3.8404494532946134,1.647945022412874,2.642178851074079,2.454300977988812,29.74215479027348,78.23805848594665,-11.206620812544015
-0.072,-2.8940209683525118,-67.32990921748693,-8.759855071228525,-32.20398114128699,-2.1725607951125285,8.104570740814227,18.835178152719546,-2.1810267392404725,10.23378528968054,62.54742793750925,2.27879186843328
-0.064,19.207236455376535,-72.61681310133511,5.112810399068689,-36.05952991832265,-6.342073916375849,12.240902219249387,17.94386629469273,9.928390547117907,-12.680744918300324,32.873263734825,14.59732889613227
-0.056,25.210007733034672,-43.520567810527645,16.047677764954965,-16.693029596134764,-9.590278958341417,7.639954709129946,4.099427788004261,20.831796771977412,-1.274627500933906,9.655229583847378,18.140281016591693
-0.048,8.251743708281804,-4.827509419001722,9.849166302051668,-15.10958233700727,-7.9466155624128385,3.4195707015961174,2.389247308602065,11.933595333691981,30.304114581509225,-17.154707609332746,18.757553499858403
-0.04,-1.942050344927733,11.492096712460354,3.944816897454278,-25.285505474678747,-1.6177954990980803,2.0427088835629132,4.056036507256715,-0.2957211891629544,39.02400975810631,-53.971219671823036,16.11991529520384
-0.032,-5.461887195701738,12.679093697112556,4.314690773318946,-22.102786028971774,3.5789672685352727,-3.5649544449591493,-6.796105597490909,1.0595640196196041,39.888701863263165,-70.95689856752028,13.029755265503699
-0.024,-7.496067956172655,2.978634297578533,2.204900961673795,-32.122800315167325,0.8823316055264252,-6.711893378182656,-11.79056156143743,5.219847571910038,61.0906669885147,-52.00204748459549,15.539711994313585
-0.016,-4.663535320761744,-15.338180013191003,0.5640379764144889,-62.103052155482175,-4.021494623510885,-1.4869897766583116,-1.7827843008999749,1.7579165561729926,77.35565128582714,-30.95139184388504,18.529994762889814
-0.008,-5.395076065772071,-11.417560059122545,2.693050104406496,-64.62981628804502,-6.040558371780239,2.834902457898819,5.511810475520775,1.375177149724637,80.44327155345233,-27.06309811856615,18.727164207673532
0.0,1.8619955591922017,9.93571002133835,6.449926355086547,-32.98895082613003,-14.258638094045661,4.810737555762744,7.192180416821027,13.772542551963419,100.95925136198287,-13.159138852852028,21.992165460489055
0.008,30.81385816395621,0.6880518582370861,15.3760827137983,-2.154704231402143,-25.686326062217002,9.791229971366446,8.994962016961225,28.373250268150972,130.08889738534333,11.258771927687846,22.602555982134056
0.016,46.96251674574799,-32.92431048637715,26.755760785212992,22.97492986500205,-24.00319149657483,13.210152503896987,7.448811273539664,31.53232798744536,137.74877411318474,23.627322921907805,10.01806740634315
0.024,33.212596816005195,-58.12018458487947,28.163481796093066,43.82106006949713,-17.36538972554726,12.85177520102835,7.564374982653271,25.527016318266366,126.60255008049602,59.57217166818114,-4.631409328593596
0.032,28.64740801520185,-90.4711731605903,18.296753910708027,50.08911704100073,-24.243356193356686,9.916414618261813,8.546243442439192,19.040414749796454,98.74553417910897,153.9967160962206,-5.308449442052799
0.04,40.59909163003476,-121.07371284214165,8.35278837952221,53.17775845541434,-38.44890476547565,1.8397846320663704,-1.7270764210037912,17.587665871023866,49.78268168346015,264.2530193431535,1.0070277556639804
0.048,42.28673386626147,-104.96824136890183,7.036538642726972,58.64701187386953,-54.25931160021394,-0.9467117052787626,-6.423318790730398,24.83996044387879,-1.7253496506341717,365.37270224034506,3.247345596823326
0.056,46.42925375772603,-71.73992183693976,15.333992209630802,52.42758269943843,-77.52669548587951,12.1745748137999,13.682744833831078,34.52466181832466,-44.699510293445655,470.45066654635247,7.0461893877316255
0.064,62.87683253993531,-72.20527613740225,24.875946528405894,51.25842893355513,-91.29747373748414,22.388690920132124,28.26717550360187,33.11769015523927,-87.98886852413382,516.4075285439477,13.762169780979725
0.072,59.32623972580993,-67.00699347413521,24.688226436032377,76.66452955384774,-74.91677711589297,14.444452850246764,15.41650014590709,20.48857721688313,-122.69073151793317,439.902767434456,9.721369243275282
0.08,32.50094841922493,-27.988483268138467,16.485459231835325,100.95774417250662,-45.542755740080786,5.802261167362444,4.6883188622520295,6.067180085641519,-130.87033042619623,318.1731851791777,-8.533212278686952
0.088,15.795642622156155,-10.85476805506477,10.160505361732536,103.32327951757965,-25.971014296409002,5.674871288789832,7.129693788597951,-8.689964870187536,-118.7097965966881,246.18962291104918,-28.444671051393602
0.096,12.462261969314795,-24.068779308173912,5.9235405392532305,107.1478810989417,-12.127397924528736,2.5713616332154583,2.655258071005701,-21.71691423404129,-111.15056107779384,205.65271891219024,-43.056382195865524
0.104,8.460105420996456,-3.9929319092767925,-1.3319473035498273,119.02191947036472,-3.2768952070730175,0.1867298993490919,0.7575021935076711,-25.600936649692308,-132.36271831287067,171.92620716540566,-50.70591496274893
0.112,5.751350048229545,53.12556458114176,-8.756362470031352,124.48719118285676,-9.07284695263879,4.944590724426411,13.517136838039434,-24.686712280464224,-180.96565777091806,171.89873161867794,-44.4817568471412
0.12,-3.55712257628871,100.21812928933568,-14.745165530874104,135.3375949329301,-19.11767620209694,2.6827011299987986,17.70560752845062,-31.104820878544047,-220.89718853049595,182.73136639348027,-24.609583237046266
0.128,-27.20598900931791,133.8584850451757,-23.913024548017386,159.14075912433458,-16.579818855926383,-7.322329749140754,11.739035693280787,-42.085310065041696,-226.58068413282163,143.9474953570723,-4.8241385871185525
0.136,-39.00761680464086,162.96412080751904,-28.928237636136853,173.0780366042315,-9.24826252110424,-4.6523309343327455,21.806526887912977,-44.03131239927104,-212.59227490518313,74.46590945246571,2.8483934133516486
0.144,-25.44322529617821,176.0323080193688,-19.205484165732948,177.20863072147077,-7.413665069090194,5.685235415665029,32.45946743557388,-35.95994334903273,-192.36140215037912,34.998982177841306,-5.872852900778321
0.152,-19.22761861585952,184.45689109795552,-10.009384293933694,196.75801751438598,-0.9981124141828085,1.010268389135257,15.178480769281363,-29.527392620235688,-158.73365180528415,20.12084592593685,-29.45855919527521
0.16,-30.531763703097774,194.3381341780472,-17.931205553134753,220.0305432509575,10.419727037843005,-10.822561002022402,-5.741734437116571,-27.426085433843095,-120.95393413716744,18.27162547846747,-54.72774495612871
0.168,-26.995125226415524,169.45167062861643,-26.43365646875564,221.53182450220277,6.983302863391893,-12.059290360884429,-6.78875520146269,-21.41981597139879,-103.57405073657725,78.20497514664841,-63.18549780311171
0.176,-10.561028335730215,107.75122771572111,-21.29885486830061,222.7197572301754,-11.395223089931397,-12.20551470448429,-9.384869587532835,-11.071412885246014,-108.66111794846776,196.72963918825639,-52.13076946284808
0.184,-15.339883457017622,64.87638511035604,-17.64032989736333,241.7831303856145,-22.259623445987298,-17.961949984343864,-17.492714496366048,-4.230999106092947,-120.34106661163656,286.0305922484171,-37.95929024436562
0.192,-37.22823790128443,63.963339366912216,-22.882307888351928,242.851457261667,-20.61500399874953,-18.265618000776477,-12.70069118474383,-3.919251919022967,-126.95553938135275,313.6164928489881,-36.46647775857643
0.2,-50.63770168537326,84.77643174266196,-26.376269648997855,215.19073758123793,-15.247080577865415,-18.398160589989722,-12.659347561384992,-9.006593333825023,-120.85200142976235,304.2024667714374,-48.65018571997579
0.208,-52.2156435247631,114.20990946063294,-25.988395729483518,205.7503596945807,-4.345504835359458,-26.962616297326427,-31.460494390613064,-15.353655354889659,-104.5052988764493,245.71833800497376,-65.4367552214436
0.216,-46.05407713708576,128.69704306576793,-23.614068414365104,217.51221483951446,9.989110694865294,-26.12472181941484,-33.946726892437404,-15.419786675038438,-92.97085619032418,155.70522737274234,-76.31424345766834
0.224,-39.37600323958153,103.5403804461851,-19.31368831821884,203.6315865021272,16.57783913402338,-10.707208005284208,-9.1755758265803,-11.435454233925162,-94.43775631153,108.47650426166176,-73.15364599022041
0.232,-41.486593395936914,67.03719177104658,-20.139360313876978,169.89369918304155,17.022686347219466,-4.847656260125896,3.5243163773567896,-13.275200114759766,-106.62004802609957,103.81149638363844,-58.54473865691796
0.24,-44.0705377112629,59.11843730451653,-25.33239909275886,150.65771993906552,19.211317191681616,-9.695579358574397,-1.3556888517681707,-18.32026916239555,-125.17791649826947,82.77180446127377,-46.46036451439305
0.248,-46.50932542109612,70.11380311399846,-25.639577609314188,137.88660420532187,21.17182784128747,-6.925558340324013,4.132041586573513,-19.176026075763048,-137.9312732564691,56.71103458821893,-42.07494662275087
0.256,-61.903919851626895,82.35827087615507,-25.548594797160675,125.93461877494435,21.644420009767373,-4.431699097865578,10.819970101992887,-19.060443435155108,-135.0422331367524,53.880332097767955,-38.06660537250445
0.264,-69.06207752518695,98.41042308063452,-28.619491480560054,126.06458640581725,22.93473056581686,-10.887961582908984,1.3801715933582654,-20.36567868850443,-127.32051775634045,43.11972988438146,-36.77251590193796
0.272,-49.79775168278075,107.77901218440783,-25.720211075634808,124.09156109628466,22.53538507887463,-12.074409868947496,-5.475146586199544,-23.04466891505811,-127.79538893268932,18.714535153576296,-42.89230634983046
0.28,-40.75998614200088,101.42064247375022,-21.721412726296894,119.00982358653667,19.93909779219206,-8.264258911748087,-0.08251539798936318,-31.177052504169183,-130.31144275068834,15.806920087028814,-42.52100519377142
0.288,-52.79976297666381,96.14915146480719,-25.110584853519978,129.38793229570842,17.619270331277885,-9.843437358948767,3.98488063602368,-37.95674597961485,-123.03858350171717,22.156250309083543,-29.130002880839157
0.296,-45.39054792074191,98.3928306945045,-21.993733742929468,131.04264581851504,13.096574155714226,-7.133416941671827,7.317022595577225,-31.40024719940557,-104.38491403799802,13.465036242913232,-21.620442912658795
0.304,-24.540991539993897,96.51694529014566,-9.06401745464666,109.66400114868044,6.7599081521522075,-0.03661561896185176,9.283702671506362,-19.581966636486158,-81.65992430862784,12.776455216279155,-26.067844913078947
0.312,-23.43299233822776,93.00132673629992,-6.225149363495853,108.4644525985444,4.3978032816987795,-5.184672291653068,-2.339778960342435,-13.502538157976698,-60.87115397779584,27.17590348036404,-27.204246634861548
0.32,-23.215608000016843,87.25529900979885,-12.910795444573647,125.44068567512456,3.4712015899474307,-13.294726824189175,-14.429798874958264,-7.25618939511491,-39.82392887737977,43.7018308463224,-26.326267900821527
0.328,-8.591605239384798,63.47741016427696,-12.492816803828878,108.66433783877979,-3.4400162617676564,-7.614732317011865,-8.43156712325853,-0.034817743096870246,-21.022395097067616,89.85119878415384,-33.05088850749748
0.336,-0.5699114635980078,31.406702122336416,-7.092163187877019,70.50604021611598,-14.285473325791914,-0.7299076506964872,-0.6222716004490276,2.5540490874616864,-16.604876959292014,162.7556104783358,-35.68255363634828
0.344,3.89310099298769,16.799360242418643,-2.222282041031492,48.61084737482216,-21.41822799237841,-1.9296876161927066,-4.514880253343873,5.449150979159772,-22.3981123990841,184.7130444300261,-24.53760679745099
0.352,10.659756622830226,14.198360732104145,3.61438259669465,30.38649274471517,-19.917886293560723,-2.528802204755383,-8.163435804663282,7.05108751889118,-18.316261670960987,133.9155301210345,-12.583743663787514
0.36,-1.8434331233758954,11.600161345605287,3.367563248906955,13.246995038209857,-9.664593156313634,-4.475940097540338,-9.747568435830832,-0.7020879646469596,-4.39736238733007,77.62840043566717,-10.546018854233317
0.368,-18.34135690808761,17.469989759219246,-2.563449261281753,9.285353633008242,0.4832097840834241,-7.749776657754376,-11.90396541629604,-5.474445852912199,5.745670198012179,45.29203933562334,-15.010126009833215
0.376,-2.646164829460666,24.076741581984116,-0.05804710138860367,-6.22056290099586,0.6188732751679547,-0.4117973744495471,-4.657545100814425,3.750822698477439,17.455874959538484,19.42164813704336,-20.302428487052424
0.384,18.648081814893708,10.181118325863139,7.35110699126074,-34.67648668232749,-3.723435462257648,9.67399211317539,6.047729269277092,10.022110108866322,34.88255254035583,7.8164697435059285,-20.641777688468522
0.392,9.711614876128582,-19.60080687321344,5.720874028262706,-38.16096781352254,-1.5205000987518411,6.890317828229,5.0602121095158115,3.1648613609529606,35.83172732139196,15.232112747526044,-13.33939667468364
0.4,-0.3794673265996771,-50.6268556045717,2.002854309721216,-31.675523044175534,2.6424197851301963,1.4643668056161707,0.8376416277166921,-2.709298985800125,10.05688419093511,20.62276779310322,-2.592084536844642
0.408,13.062361220805041,-73.35591220169745,6.559542091314834,-52.31019015826403,-0.6830947418026939,3.98121398442167,2.7469979435806606,-1.7782230314351741,-13.39359525472729,15.896179773266029,8.737323289708325
0.416,25.91422834206728,-69.30538463145047,12.529432093823887,-70.98199404150218,-7.180654241099039,6.848856503715544,4.654701778213958,-0.3175397654376387,-11.29312932999165,2.279743947149567,18.5655982590139
0.424,24.994827219245757,-39.52971444733623,13.631890654692935,-60.24066063682644,-9.036596037845221,8.67420193243865,8.293132179794483,1.492086816819848,2.480910647584646,-20.65565050884778,21.468201609370425
0.432,20.573704295510808,-20.042692091459642,11.727416424523462,-52.36547819332032,-7.35128578499825,10.666425697490975,13.041902585190323,1.9504512232199749,12.339606565965171,-37.512716101490525,19.264291036913182
0.44,17.927908427667184,-30.167210754782143,8.522255574873418,-56.44674454510301,-5.466967001595678,5.984237953480793,6.43091751424775,-1.61118254859561,20.627557088182446,-36.73043496393973,19.241614706521382
0.448,24.42796031827683,-55.96773197475048,7.9061809684366935,-44.57779099860266,-5.242556086133797,0.9417706936928821,-2.6358862302532398,0.24479199906463078,25.321560926568075,-26.69420315899863,21.43932312002118
0.456,37.5704328166526,-82.31656624647934,12.864405132244759,-31.857293486409205,-9.000944803208483,7.4253027074989,5.251203202619471,13.563386531314048,25.152542365938963,-9.440608592767928,25.808443197745838
0.464,36.077245063994,-93.3099164235721,17.820652891482027,-44.74298918212605,-14.702507710042376,14.450228448905424,15.70143018806289,25.953552779812444,33.46906761424827,14.182349624797897,33.46111518336076
0.472,24.81538190625493,-78.28784024275357,16.273481497722745,-54.55703834439827,-17.48060570745698,9.267520871975341,8.359837423056469,26.13240242182842,52.0304477800201,27.03436785590799,35.58702798594967
0.48,32.15095320646811,-58.28490281490272,11.1396677501334,-43.27016301902573,-19.270037613840046,2.9343299865609302,-1.8007493674804884,19.662459350105895,66.00351814089866,24.02748465793773,29.55467660389693
0.488,51.36188777111871,-58.64205917495527,12.876320914237828,-44.66598638529689,-23.961600283027675,5.387071741480557,-0.4852391400308711,18.219408753102467,76.70684673124028,19.792859957139452,28.01549954893795
0.496,56.404737081885045,-72.41890900833354,26.131821484437307,-61.02009431233033,-27.0530963724797,9.587882435126872,0.3601949876359152,25.935193854538728,92.12889911348012,17.51385873717217,31.823277361948232
