time,C3,C4,Cz,FC1,FC2,FC5,FC6,CP1,CP2,CP5,CP6
-0.2,-2.0725368082550024,160.12112104979886,-6.077635850244813,10.329517628264211,-6.824802495813099,-4.327949828694022,-5.985389594951609,-14.784592325997274,-94.84406775177044,-30.718720397881324,-11.254378743091666
-0.192,11.217432998525165,136.42600899229558,-5.855479568274656,18.390863360435283,-7.811483139523599,0.4289152636779993,0.9920768011847504,-10.588251138127369,-89.00054453876106,-28.204827426066444,-10.351610289842242
-0.184,4.346098953659346,108.16633106270096,4.988806027981159,13.688777421052029,-8.840985955360665,9.5217080685185,15.203858592688794,-9.424137704416879,-67.79029879903781,-19.02317545575677,-5.921392045611718
-0.176,2.5371309808819897,87.80900555303002,11.262434720908086,14.848331284562734,-6.788377378226579,5.328616410906316,4.9943208518294595,-10.573264982248212,-47.09809549241411,-13.168159463725539,-10.1708264283755
-0.168,5.27380695260795,76.3782724544358,6.052682656230513,14.105533855079333,-1.386767672878191,-2.3518284570280548,-8.958591491259138,-10.858418307800223,-46.02388968965628,-15.600703001773951,-18.041893696837533
-0.16,-10.225184012021693,72.57907713894868,-2.6117952150508796,-5.921734102125862,2.7480946598141003,-4.327126676099236,-7.3543599228705165,-12.736251797511171,-48.39386742948102,-15.80878560905975,-14.952774693541667
-0.152,-21.424629543866246,74.00814724247638,-9.091777977928379,-24.44002607674752,1.3491670305309178,-6.5761595126674015,-6.1700746255571,-15.17481593762653,-33.55264384724542,-14.995176718292484,-5.445726786568811
-0.144,-9.313328944599021,71.99140099594175,-11.029090696301795,-18.410749522639513,-2.8786164893867285,-7.79941555537943,-8.228839892456156,-11.799498739185879,-17.359659421491298,-20.588520662544692,1.0020443819973042
-0.136,-1.228405396001476,60.257753415928946,-5.901487698467111,-6.625173016983199,-6.886958134654642,-4.018421877092438,-2.9635055259533845,-5.240843515641007,-12.386954596502472,-22.04796037997962,10.539314256441257
-0.128,-3.73769412188261,39.47331791121693,1.5203726742611332,-11.525889995111065,-11.263108090783387,1.1110412850169082,6.143459366967029,-2.7448993918683127,-5.979701771614918,-16.290769686670373,25.0534910654657
-0.12,1.3167927809692077,18.46726371526419,3.192479808853006,-18.860282440118702,-11.728451520679835,3.0467084519438887,8.970269515216819,-0.8901989767043537,-3.390154447160566,-20.831521046727556,31.496943551392153
-0.112,1.2810889181146112,10.245545006679876,-0.45718908397910313,-14.752239944833747,-4.555029238321495,-0.2734901823111518,2.3366964490080924,3.1620817809958797,-12.175398421153597,-31.428156503971305,24.42203332680339
-0.104,-12.492503887651834,7.913598058617593,-3.073759122371779,-17.046922268322774,3.0475298167847287,-2.3845272204349026,-0.9022548670124295,2.1174675622298937,-9.61291889861272,-26.72505109800759,12.088129776432847
-0.096,-16.05757590196475,-8.100037700144174,-1.0958849553370265,-28.660527163208297,5.859352489605091,3.592506195486643,8.473808347489905,-3.181089674446319,5.146530976149395,-17.16919867340369,1.7084858108705556
-0.088,-8.70056549477182,-29.546941144764705,2.155996628120008,-22.907401684212804,8.285768283364362,5.284242142238492,8.835502826426811,-2.7436402262230133,6.139160109812524,-18.646926078695753,-2.553255860998928
-0.08,-11.95937966961844,-41.91644847363182,-0.43838943740454506,-6.845150348533421,11.062565047218023,-5.309458875179504,-8.580627882156554,1.19498901094859,3.706297673093919,-13.557606194111552,0.44627991528747063
-0.072,-16.570977906925023,-56.99460647683912,-6.817478451058091,-14.602942152205935,11.038028020385525,-8.709094886688732,-11.19108497639958,0.5747974378853289,14.927557298442881,0.6795545599320075,3.7554852122550137
-0.064,-6.916900364393479,-65.43266171728187,-5.148966287636799,-37.16864812738272,7.706455196850953,3.0702924865256196,7.57565861925552,1.1831631609569695,28.602115758555147,-1.247139383747291,3.397046093415614
-0.056,4.044716962874571,-43.16246024149458,4.425720728619668,-43.53642411212771,-0.4775356569622695,10.776976105725707,15.483425059411895,11.30841401562709,52.57350111870003,-9.459401147972413,6.5575196476699835
-0.048,6.81072682382787,-27.980736734935807,7.8221372918147685,-28.798405978173637,-7.721984563879128,7.069103968229656,7.388459704798074,22.34569327078049,85.75358731406604,0.24630750816768648,12.568183799059021
-0.04,7.839875164089446,-60.386807912267294,4.475748034610974,5.586063108667635,-0.9526081876274732,0.6972205415927559,-2.348883839350837,20.79646009036312,83.2810163367616,8.632272339851989,6.677345191785813
-0.032,8.720150699374658,-97.27265662495321,7.767969567141772,46.07473105088142,12.765209070977459,-2.7808959960294186,-10.48954896472565,12.02645130969815,52.9188378112691,5.349628495041318,-11.57608438752122
-0.024,11.336973798455505,-109.57272265839765,14.091324840637704,57.72978635564455,13.748350572384322,1.3290319110144637,-6.591035825306622,11.043650907103007,55.426129951474365,19.946195604442586,-21.428781047397372
-0.016,17.714064993551524,-131.91754744174293,6.9654889554068555,43.34672079878555,6.532258382458082,6.592895676194138,5.605157381958289,14.175481373862127,73.70159589533942,55.780742185165174,-15.241930147488086
-0.008,19.876038940668664,-146.57177501578084,-7.736890900916883,38.5376624465622,2.544343099399125,-0.9088533030271551,-0.6784365039128912,8.529968076613795,45.73838439755528,96.18826948714052,-8.178764053259044
0.0,18.384783084350946,-104.9814404551015,-9.38533668961372,37.46452962279212,-8.570413145675587,-8.082036136439655,-11.560059604322971,2.2812847207321396,-20.306519536318053,148.6888287486468,-4.594883848342397
0.008,22.770198448569154,-45.46090301164631,-0.8778613955861844,21.186157188595757,-27.989577339394305,3.7143396294464277,6.554384215265107,8.480005550871642,-82.82516703069264,196.5248561834337,6.337279668260069
0.016,25.252499234546576,-17.76198155596568,-0.3065125685303343,12.409380979413053,-33.436931444747195,14.412276003753744,25.45983942979479,14.024110191488777,-125.66781194515836,197.24946668294663,13.771947492001615
0.024,15.316683505596899,0.7541419528133683,-5.816483530361968,27.503300416989187,-18.146251779274216,5.23196519642061,10.095727712806402,2.515906845655808,-149.97760120688915,161.65714276339554,-6.495993745926713
0.032,-1.3715597373601751,19.423450698361382,-7.50650167567184,46.84413416546426,2.2577509713081807,-5.258911302551057,-9.109857324663128,-18.437029926571544,-176.2091390773984,128.38900480638645,-40.440748459369594
0.04,-22.27534656987863,27.30321731394126,-14.083502730200788,52.44841356164503,16.69747650772913,-8.061610169345347,-8.247084513921523,-38.78057603274904,-214.81449442102675,99.18110698872529,-51.283455000990706
0.048,-41.613830323819926,63.99581258886558,-30.67841853639544,43.47885667550741,20.207942455043085,-15.311479967480917,-9.159725533888686,-57.190956958837326,-240.5680781525336,71.58790552265015,-42.114707759799344
0.056,-40.66280940696017,142.5962649461897,-39.71671673040374,37.5390061718857,11.500797238316819,-19.127462810069165,-11.573565232427526,-64.36488792939187,-250.2512628361401,56.34667208920351,-37.93525812257972
0.064,-27.264565336998466,197.55374199907297,-33.52088777590218,53.97619090746907,-0.002433994497996966,-9.120442436465066,3.3518151665406277,-56.194962921153675,-270.69326608500404,46.57287772620177,-30.103785792381956
0.072,-29.474658283209326,204.50178668667976,-28.759538178950812,75.97304823611049,-6.02193318631115,-1.9736491530165756,19.2540344098463,-49.82468477221348,-292.36294907091997,32.61468069518629,-5.023677706663671
0.08,-38.56558407609226,210.04090431499554,-32.64086858698199,83.01740164702133,-8.06454492140813,-7.676166506055919,15.742019188070568,-55.1096237978335,-289.83011355808225,17.817543838554357,13.259033799801713
0.088,-33.90902281637817,226.11730729900364,-34.38018783008059,96.78853692855365,-5.714040045649349,-14.31547557032993,2.8547529309963604,-59.44669445692239,-273.1258512495013,5.602932769754231,2.27555929842634
0.096,-30.313266323330552,231.15950353175666,-30.52636500832791,128.7621631280676,2.358634473972165,-17.656442300139638,-9.190760524454854,-54.66019214593002,-254.58538257519075,2.866195683666837,-23.86417327522178
0.104,-36.546944404603025,227.61619860081277,-27.01400480366603,152.40408842765075,9.863841916791959,-18.975671523043694,-16.012000360796726,-45.35052462211487,-228.4859959239261,11.546790302176468,-44.576690896197924
0.112,-35.04133393409701,211.24544314030146,-27.096481544523126,157.4238660164989,12.673003194310462,-12.058561108624604,-6.3239531533454905,-34.81479901786539,-202.68399851260895,21.52637102944948,-54.709193738391804
0.12,-27.707964340592472,165.4964622349246,-30.008921441322496,152.51819236311292,14.194431386181668,-1.3299914551251715,12.414810332907601,-26.11968486371118,-194.87422792792245,36.89396189481457,-54.46142858988239
0.128,-30.41294182815271,112.8151867138399,-29.545877548272625,140.56454780854335,15.985244014397805,-0.29277053749013193,14.756200049438132,-22.50901179550405,-204.56420823638638,63.98884277604661,-48.450928415311665
0.136,-39.333200180327296,94.33189459965287,-22.72362548124058,133.2950668803039,17.72325119769508,-7.248353076044285,0.2631315365820781,-21.000176952736098,-215.8444572848184,80.75475522537474,-46.799610616450664
0.144,-44.72686111094034,114.85653136219183,-20.573373691159567,133.94036804577223,20.21193772073946,-12.28421522534324,-10.778471574397647,-18.905799080586675,-217.7816512883658,73.5233793096414,-53.29240829488646
0.152,-44.2053655221071,149.5349784651297,-29.34882076033831,124.71204404187995,21.501466147145454,-14.8773475792773,-14.3656167705708,-19.538849646750656,-213.08727291156393,60.73814862608649,-62.315791907908704
0.16,-41.14417279688772,170.98047481897217,-35.71207076445431,111.14493555676827,21.472994568785975,-15.704006521591227,-14.774572666066025,-25.020019290792582,-209.546549441217,50.55446679341866,-68.16702934969607
0.168,-43.86090644845411,164.48399021802254,-29.274287322301987,113.38287396017333,23.109754795576226,-10.424677557019283,-5.974728599468386,-30.400257382053,-213.0284157448314,35.46002518811126,-65.84072803768325
0.176,-47.95863818199926,143.72883053834636,-18.585882554904796,119.57422331902583,22.617497473314188,-2.4244142745112827,7.790582841403482,-29.207402508710615,-226.1494649769173,22.705420406740146,-50.98368404305531
0.184,-45.828897585975916,137.4345501494185,-17.168774572493884,114.94971651125387,18.06772285238615,-4.240265079305159,6.2117921551445425,-26.744861516579395,-240.97400447713022,18.29420573304112,-32.598385505773045
0.192,-53.1123532125591,152.17140021600915,-27.016984978833726,113.38796798758322,18.804705376414894,-16.66617676082469,-9.630490632624982,-34.95621509640161,-249.79871712559049,9.86162550378981,-25.298688873375525
0.2,-70.09795415181537,169.5750793347439,-35.201848205727394,123.70152889065137,23.16794003587501,-23.285384842303312,-13.647253175690013,-47.16255241536579,-261.12355955011714,-5.634291465363161,-21.150283587804015
0.208,-64.74314832675877,178.10857179156432,-31.014048650193843,129.47034638740197,17.085316742681368,-17.71431684073488,-3.1944759992983496,-47.26131812475891,-273.34829358164546,-13.64693156256032,-8.075258629208363
0.216,-43.51866744373044,184.30147127512933,-24.3853015067554,113.30151878793362,7.333629095978214,-13.25913996551733,-0.8282997224929803,-42.94751489893152,-267.72410265217275,-10.431395608107882,-3.8269437408092286
0.224,-45.97091171441797,192.6413988546529,-27.405105295694536,87.3110159126572,9.817088899607882,-14.721008041076008,-4.80521606692565,-48.32664977797905,-255.19344671791436,-6.448301104281577,-17.71030637416698
0.232,-61.078698017113076,198.41145640525815,-32.34455871903657,83.20877643732389,14.708647151653881,-13.287969603613426,1.5110965531306597,-53.85204627852272,-262.36713817200047,-6.832730668018299,-21.987916376445643
0.24,-55.77364280350232,200.20694956050508,-30.841516582498123,98.6445617444927,10.426353101035666,-10.51635460963041,7.560710660071849,-49.917824789141974,-270.61894654074695,-12.232110396977893,-9.804264062189985
0.248,-43.21300325975763,196.68294407478433,-28.015050537576908,103.56436052684651,8.026156016808756,-12.02067711194063,1.4382389419921977,-42.83879624449823,-247.9238608501411,-20.098219539786733,-9.094624880432836
0.256,-42.527386607825406,184.58809808263356,-26.321630175711995,106.19234780748063,11.536633328221537,-12.66904935507882,-3.365673446176376,-34.95048238053568,-205.06907557565688,-18.383440226984757,-20.85107513711671
0.264,-41.61901654099685,172.6334785460422,-22.910814435839594,127.69644177734367,10.473117232698144,-11.355514413486118,-2.81368785387659,-26.532781836471177,-163.04940029701788,-6.762821602239778,-24.21059354113236
0.272,-30.919285271359133,165.6646962252146,-18.760364025809654,141.22935726270558,5.403446080789448,-12.180746829677133,-6.58552353566006,-21.748420352054747,-127.8214709111218,-3.102425576565933,-21.448688177142763
0.28,-15.231008238773715,149.1790590955929,-15.9949836922999,123.77144321163239,2.3128737313700887,-11.608949118390615,-9.990559969052882,-16.09288649797142,-111.15251502848034,-3.8591917164516554,-20.56015445367588
0.288,-3.6768658912192507,124.38623476782458,-16.064286543331136,101.76898060486523,0.35079440041845683,-10.271014879490107,-10.876698621843138,-7.6446582597265005,-110.7231830759117,9.01369893787704,-19.08653234562924
0.296,-6.492452490931883,107.7417905823732,-16.919865667784748,90.63267260455267,0.9354312415099021,-12.18418795741333,-14.085515111307092,-6.832270575102557,-100.51377716603113,20.100286991922708,-18.832375889923686
0.304,-17.182898417855654,86.5219977420111,-12.51951562488607,69.54715402654503,4.655398965639055,-9.322127240908117,-8.712318036047341,-14.32373762059818,-80.94196306119672,10.602613919084966,-18.155698785165125
0.312,-20.521191314995228,52.85030848620282,-8.099971735441393,35.459608245631905,7.706742309526541,-4.2811632237200445,-0.6318467559100298,-21.720798211141915,-74.28038561654361,2.1853358147607005,-15.646725942852726
0.32,-21.671449337233376,40.34604988394611,-13.40003314390717,14.887466780377844,11.876107347732198,-13.512463603827968,-16.924468845255134,-27.56789796575225,-69.5380133643379,8.924290359343779,-24.042885104607414
0.328,-25.693902563822082,50.33897134969827,-16.46141982592365,14.63227855025941,17.143932962352043,-21.468990206568105,-32.923352538365926,-26.202087696537205,-49.263378241392836,10.022469989610686,-40.192101776923145
0.336,-20.051060722212465,33.64118942523727,-5.309551258560152,9.17243364437958,16.35340436095188,-3.1116008873500647,-6.071999400561886,-13.788302200493082,-36.87976782918255,0.8618727376635171,-39.34185963372884
0.344,-7.26373178729017,-12.587941716974345,3.4925413293754866,-7.900375763615653,11.933622236910255,15.258347945992234,23.897424870949948,-5.58826248360764,-51.40846976572158,-1.493269439734871,-21.52887959490029
0.352,-3.7110591395171126,-41.87029902214452,-2.5151063604818815,-11.011549554985239,11.546868978065094,5.088257771184482,10.29430203872715,-10.271108798759164,-70.17334027119337,0.7259401259655683,-6.094883103248913
0.36,-8.82288394730295,-39.967710202519115,-12.103238539381593,-0.7366574767836567,11.901115139523178,-7.035658429127368,-4.593491575627468,-16.157877469621827,-71.30166645484445,-3.594404379255446,3.7571451922716133
0.368,-15.099672412457036,-20.907303694631448,-17.49675169078216,-2.822006479879724,9.926786567845157,-2.172698503213434,7.8983047088685,-17.68358204871453,-56.06629889814778,-7.94292426159011,6.070271664090532
0.376,-17.90588434558098,2.291259430443269,-15.621069551609702,-8.567793117826652,7.725241297701476,-0.9385191638048153,7.914299897584914,-14.819315857874846,-31.42339327029655,-3.165355747635998,-1.6759255855546003
0.384,-9.531409915183733,7.917895323862675,-2.488727765975004,0.12001907725054745,2.520114813428539,-4.653114430008504,-6.379047420595442,-3.6100017038336354,-12.76129375876423,5.267537781211075,-2.6388003684715167
0.392,4.479255384063973,-8.845303865497828,9.123100427167254,5.12012094143294,-3.5406239823117778,0.5160563288489566,-2.5060119554161027,6.816570507526709,-16.82361326056269,6.692880107261423,8.36918788406552
0.4,9.365458521866417,-21.61904057621388,7.37781147877429,-4.927724841673874,-2.7377672822330497,4.068353817794094,4.361119546315895,4.793501808700342,-34.38581020085418,1.2191309391958598,11.662598929248281
0.408,7.18343534830202,-17.97008195185373,3.7891007686532334,-15.693389109218906,-0.9383998894026843,0.8214027355074411,-0.06909492638616149,-2.673254036746276,-40.114219573674475,0.05861976486024314,7.7962500534264105
0.416,6.680063407805672,-5.167868986086457,3.436476882630306,-24.56521663945111,-6.1203570171450625,1.0217335062672568,1.7571401350749922,-9.710893745321648,-25.629252820552274,7.01650659990711,9.883100831409504
0.424,10.444250902599018,16.888692526717698,-1.1088181992713122,-31.419233620864482,-10.699795007893865,0.12239774750173094,1.7082853690154338,-17.365661187449955,-4.964970781100122,11.20580788069202,5.866375782877068
0.432,17.756266244596738,38.51498776855394,-1.8844487520455373,-29.80511962825239,-10.793230550417617,-2.423021889477954,-5.976121832399349,-16.535467841679704,5.9793411730946495,9.218558074922777,-6.894322050026264
0.44,17.863052931204848,38.54140330989815,5.695020696415727,-32.54519496761656,-13.354022108964864,4.752023051021609,2.964777149835174,-5.221935295375229,9.489207969515528,13.591925063359183,-4.404729243633181
0.448,10.480728540326378,17.798119763448828,8.063503173765024,-44.89662828020261,-16.589758834516626,10.582508493229739,14.79142900063001,3.244910616795007,15.215759348201393,25.06786508119987,10.507493680301646
0.456,14.26832223727392,-6.132874850757729,5.4422187250419025,-41.281750499297566,-14.337927021220615,3.278342321871195,2.0212345962371003,6.268698120500653,19.463299411096475,27.78295108910433,12.70635970847599
0.464,18.99296765570684,-20.652694442661893,7.478150794016483,-20.952167699887198,-10.432864356666775,-0.35629689778580853,-6.581566358797082,9.41851895457689,24.09847033006542,23.776085739383564,7.451726771504393
0.472,4.304234059881768,-19.74504515475047,7.897684890857768,-19.40793290749717,-9.809076310652781,5.065980512970191,5.286491827897331,12.601256768566435,42.13789369572468,29.421055306822243,9.335126742828052
0.48,-0.028796436334034888,-12.849129161825616,5.1641204169818264,-39.14825762107404,-11.651016720030404,6.596112099421581,8.031358887988876,19.093697838451636,60.44878343517704,36.90183083412372,9.394116070913586
0.488,25.765062203748137,-18.088803525889563,9.715636108466907,-43.19043276016096,-15.441068722308554,9.400965898203214,6.036107271300786,27.574919126849576,57.583963822109915,31.46988820239689,6.605479690459341
0.496,44.1366211942215,-33.43470856607241,18.59632072180107,-17.661051318428918,-20.577334648054965,16.244587850762432,15.241508906198305,28.012726292361855,48.58261430634461,28.045988800956184,13.932869361370713
