time,C3,C4,Cz,FC1,FC2,FC5,FC6,CP1,CP2,CP5,CP6
-0.2,-26.46597693052786,174.17830905909545,-9.466897582657449,63.15997352223988,-2.837189214111221,-8.306972976115667,-8.28527651125342,-12.362335688115866,-110.58470477366892,10.09250224629852,-20.82719304826543
-0.192,-27.47503665595563,148.58141585519823,-7.029303401414171,51.070890919007034,1.0168972751746665,-8.930052460820338,-11.222404739736193,-16.34976910964246,-96.46054873880166,13.70998603190843,-27.572197927083522
-0.184,-21.028110909250902,120.67564183467118,-4.545743541429762,32.77954976065569,0.5879402202742638,-5.894570814595803,-8.162872949953448,-11.49208768877641,-79.29457995426316,12.152182152623393,-23.82708952136266
-0.176,-12.626776186963992,94.16891115933551,-2.005309772824408,17.902231986083972,-4.1301636786698355,-1.9442165952593151,-2.60914341624961,-5.811263278475214,-50.73879722256132,18.61510584145115,-15.335974954792711
-0.168,-15.477740821454706,78.66674885891622,2.717607759407687,18.514679247623484,-3.5906830660066418,2.946424807800353,5.035263009357281,-4.244772824610501,-36.898828992331055,20.524593246316233,-14.626308688465645
-0.16,-22.26849960648835,68.00278871791124,0.9017384318792291,19.471032611042663,2.3253795197351157,5.3084677036740135,10.725813515270065,-4.424841823103166,-44.14727904023984,8.064046589630442,-15.364434140011204
-0.152,-15.408273566723622,47.072138998493976,-6.064700300959946,-1.0810956677905283,5.001759038938512,3.2158915052312596,7.774159935664862,-4.358296896150901,-41.37562405582798,0.946573440450795,-14.860116316596237
-0.144,-4.687719512855741,19.466295147214606,-8.658326207172644,-25.934046944383816,6.679850099669385,3.75750430652944,5.901777734464102,-2.6534630514607023,-23.82456507626642,6.552485684837675,-22.103648796718655
-0.136,-1.818126711359162,-3.4358996737342578,-5.889019540824526,-20.11642277667898,11.365148195502016,6.834234937555405,8.403463558251401,3.33447884328987,-16.980000084602434,4.108197044579531,-28.306384014414984
-0.128,-0.8408844587048296,-19.49575787023891,1.256408945314357,5.923028031615787,11.828660846059384,4.377429236939868,2.7496583046207426,11.25277201480257,-17.261456216983113,-5.625149796376676,-17.96967118322953
-0.12,-2.8686554348291886,-25.911594417012562,7.33617530506661,7.330105000294465,6.344537113307738,0.6318764094721872,-3.4134332954698667,14.086411634976452,-7.587511560614846,-5.675192869912816,-0.8533279470832416
-0.112,-5.835682878514493,-20.992111386412304,4.153056690433075,-13.426919148584629,3.0367622782478936,0.23758880553613543,-1.3278570785436308,10.49304145269468,0.5098378117562351,-8.862329193747017,7.751160406428052
-0.104,2.826783340071988,-16.868163714957188,0.5370616685411903,-15.856231584797202,2.0566555176207704,-2.516890418917138,-5.193182723036416,5.930581492437018,3.528272024860974,-24.578903131679635,10.402645937146561
-0.096,13.373546844121412,-26.093759236189364,3.4934406102770628,-11.0231312933928,-0.16418244196588713,-2.714048023056217,-7.140063473054319,2.4710920064357427,18.756305224602052,-28.7410114035981,10.685171650222392
-0.088,7.388525672428455,-41.74183612770595,-1.8590787024727093,-29.11954104514605,1.7702998785290978,4.170498308359246,7.999444957922179,-3.063326541222897,32.85226891596367,-20.409820431380666,7.030018346425316
-0.08,-3.2916835507737137,-49.15059242601382,-14.539679384397521,-38.73786010374054,9.330355829338064,2.714957050386676,11.060933928389424,-8.053136763070096,24.687272756416284,-25.272711868733783,2.961841527263031
-0.072,0.18330433964289988,-49.71107528742178,-12.784897123790461,-17.682489541267135,11.854142667287894,-8.240635901980514,-10.240984825602498,-4.508214224478131,18.745274004397395,-30.7204142878521,1.5455870387467132
-0.064,10.101922103110663,-52.84816901726853,-1.7332769047094148,-7.8616752488342865,5.322680173081171,-7.584563731269003,-14.803365081383552,3.147051066909205,34.88439327148118,-15.278872089306228,2.666845884791067
-0.056,9.426432546378082,-53.805354887553946,-0.8863967910838558,-18.021182884490294,-0.23267188389485483,1.4312042598949617,2.6106743601616302,1.5076177578729477,48.82922909397438,-4.239054262506551,8.034376748210795
-0.048,2.1052979705799992,-47.512342023719555,-2.9970099880497356,-9.849890917748256,-0.8531138322797933,-1.219294288600659,2.3348316603794643,-5.349563889426412,46.83152048104316,-11.435806042586394,16.309027776829186
-0.04,8.005617846365162,-46.634474722173344,2.435984251219369,5.259342911330192,-4.667172150893843,-8.568317471773867,-12.556091558777005,-2.98034769744578,39.374376061439065,-6.688297621623863,22.98446094760243
-0.032,22.878046065269114,-54.063905515619005,5.961875084155716,-3.033012928203348,-11.33091188112952,-5.843683309981257,-11.575713121081757,3.389909988470475,31.036922993125113,13.315126995789935,25.444969340241173
-0.024,18.579790729674176,-53.11737727470056,4.607082323818915,-9.447750675905858,-11.153554608652033,0.02691916108483295,-0.30441931764333896,2.091679231995248,34.252655997826494,20.87529874665584,21.842969872802392
-0.016,4.397728415415036,-48.468916296376584,8.518612693952315,4.636063869774817,-8.139443910282283,3.164790890270303,5.887454422800551,1.4667320482477149,56.267104299369656,18.575543196347855,17.351647456585347
-0.008,17.695948169166513,-61.12539113628453,17.03852272874358,6.83600647683778,-13.096046749926828,9.311116824970243,11.898050469821552,9.879230685354914,69.87826498785877,20.453998757543552,21.313139048294232
0.0,43.1302231821787,-79.83552861745417,19.502072748977508,-11.691653575542004,-18.325935234953246,13.634341784664855,14.453282234681799,16.60082125249167,64.72019779204646,19.54192302487047,25.322484556435143
0.008,40.5954308594059,-84.00404001338073,15.799557491312319,-17.263975093646653,-13.2757168002752,7.916232448389743,4.182029337329275,14.092161246744919,67.95954653846434,18.282032708121967,16.444674807671962
0.016,26.21428146096275,-90.6621963971199,14.937183002550926,-5.734154120329393,-8.483508877703308,3.0391210499688825,-2.3229149973216585,9.619299557682195,79.03341655651244,28.34593255357892,10.28118386672455
0.024,27.402652377451783,-117.08067919489622,16.16721264995422,-6.123414034118709,-12.291072792752777,7.904803729926062,8.630927885976982,8.035382412729707,79.06274020005137,41.19666718655254,22.28434413946984
0.032,29.07471160033796,-143.99062401743242,12.36349104142923,-20.461916144573937,-13.254932326791492,7.711053389935178,11.090355756566467,6.4259888427028615,79.24971118674408,44.790104515256175,32.678803078516786
0.04,22.919734858114662,-155.75499848648454,6.527171071819591,-28.914430720528085,-6.559406029405505,-3.4842255077613773,-7.129107652656006,1.71862210682633,79.5996772429623,41.10544441430532,27.662833202583283
0.048,18.169936198878805,-160.86547118023762,1.6485281079254852,-31.769031984903968,-1.4771918497478052,-6.577715249325683,-10.259134509531059,-6.111217819631166,66.02244236472808,37.68934132747755,22.951658654938242
0.056,9.200661691948492,-164.99333518951588,-6.160638963992719,-38.53610200607573,0.6886889599251702,1.2891377889726137,8.545587823443629,-11.153214891961339,67.40593564996225,44.831244367632664,20.435146369764585
0.064,1.8879933495055887,-169.65135202063576,-9.57172421047384,-45.87975899805688,3.2530750080208484,0.2578040363442885,6.7634535430257685,-8.554256777388725,100.37271982908452,57.73050630202,10.516494040267478
0.072,10.66914331355133,-177.19947817403832,-2.748244571147614,-47.48601708895135,3.2251580605109784,-10.395667423888689,-17.571981180940767,-6.219849616190772,116.51847945812108,53.22161007869239,7.455926703680092
0.08,18.754191164331928,-180.8125773981175,-1.4669080692375773,-41.442346946468845,1.9348488580205545,-15.477140580877832,-25.848996466932054,-11.053920766018994,97.38441812125501,35.46481520743878,18.135142844152412
0.088,16.440657894514487,-180.3481893463806,-8.8614060783348,-34.70492243468306,3.2798997165875425,-14.313393199506953,-19.0934046951241,-13.941733337848964,83.2479450379234,29.83500537838435,22.905140196187837
0.096,20.88578696863977,-185.66935163834432,-7.359129211946918,-39.15322050814733,4.651799275284929,-13.949543517944957,-20.757454410554686,-10.451045600465429,79.20021334885934,24.69506071691779,20.997307554268257
0.104,20.756012479328845,-187.29503109115836,-4.621860520616828,-44.97722345985907,8.233140200065382,-17.173359959386204,-27.592004886604883,-12.037142069854454,67.81684908382346,-0.1482398748265747,23.961923616623384
0.112,1.9819348544009787,-176.14947749321138,-14.796605649870733,-36.23378059992896,18.759760176352152,-22.63878804184829,-31.084059676827223,-19.757912264610184,68.71718918434968,-24.387169125793452,18.010967279254107
0.12,-6.335191970445249,-174.15395944859122,-18.971715826404232,-27.931260818347848,28.022979656458798,-24.713520352510187,-34.46659361660785,-22.734951590866824,83.34408725646888,-34.173187093993384,1.0535458505659516
0.128,-1.089856923925088,-189.80565320415545,-13.507897067497879,-24.543562217006222,30.767321117486077,-28.18182763133333,-43.684608533458274,-25.97838464383991,82.09605450362062,-41.6624839093873,-2.361558580692608
0.136,-13.301398766439227,-202.53826049517298,-23.412502627930472,-1.6998555450403319,35.50721468311659,-41.6668821040277,-59.49359872932467,-36.7501351184097,78.98189546129812,-38.536807309117705,2.7194117525509895
0.144,-20.366655373268493,-214.94726327019046,-36.63317802387007,19.71773953212397,38.88707508425181,-46.870047156017705,-62.738573913098975,-38.53221479729335,98.0468125158404,-12.664736236303987,-4.815227852764701
0.152,6.989610311668364,-235.91470029568345,-27.094995892763123,1.7292369782693848,27.88976239203186,-29.48877130179503,-41.443795645543574,-21.606155303846496,112.81947170619524,22.59817269791762,-8.366570251697407
0.16,23.894812959922625,-243.47982445675493,-17.70079643749655,-10.396843894288844,11.96292409028869,-19.358935788189953,-27.905730861295588,-7.81450697503907,119.16000333544592,55.93122613646496,7.676589000288061
0.168,3.317520230112726,-243.319430612782,-27.41239627401973,31.27549790487815,10.049334558285466,-33.943019649182915,-43.241758972428954,-10.628176912718914,153.24102160844453,79.40611494214657,20.188468881009545
0.176,-5.003961816837172,-278.13608258489313,-28.76190424670584,71.94862688946529,17.29070661618163,-42.45520262366174,-56.05742327074931,-12.291112166652288,189.03974932291058,90.38416162308283,13.079861322456013
0.184,20.030764350764372,-338.59190324324834,-13.18081902361298,70.02061945537737,19.832159872155394,-33.09391667334471,-52.339721573550854,-2.445171401814839,172.28258064200236,115.78838908965977,-2.85256094013503
0.192,35.81246044335318,-378.3956563342533,-8.655600469584844,76.88504651174904,20.162436028360553,-30.410439289528714,-54.05115215123011,3.5637164556212677,138.11372607274618,165.18237125309878,-16.861353337592973
0.2,24.795921194658682,-397.95306356228133,-20.991235885229877,104.92660816511766,21.562511044237745,-34.98234282440595,-54.33822508448003,-2.1628915239540185,139.64679304885416,211.63300024946733,-21.007244488887835
0.208,17.506295948798133,-407.73880554023106,-29.24563608243129,92.36143435329454,12.702411509481758,-28.467442400741163,-36.12980143916074,-4.781833827622511,141.18298164147998,264.9144684497329,-12.111658699234471
0.216,33.13540874530396,-385.43769288723155,-23.91525862166589,41.695261635758506,-10.304050902073357,-17.2202138371987,-20.649129308310552,4.025691270869022,103.96392006406055,338.77359856783727,-0.8779819578836815
0.224,50.28071584618728,-336.2928410900828,-15.05666961911226,22.20178386710707,-28.004292566370562,-15.74771479571605,-24.14547770055198,8.025112708989388,58.49985131592165,375.2645002414386,4.5587354102372295
0.232,40.95537195845642,-294.36464291621166,-17.666514911164736,45.10647458156999,-22.84808979191401,-22.865436744875648,-32.5622965247406,-6.233069786229904,29.20611587637277,335.0303349882502,4.353727500852944
0.24,15.892631197074651,-259.7956135577062,-30.656534892211027,73.26039398289743,-1.8108485428010321,-33.41856411221797,-42.49114957618657,-25.122453483602545,6.8360537096941565,255.64810649336607,-5.773293993485601
0.248,3.7687983578100033,-225.4756145481567,-36.48199729290472,97.20490391154505,19.936028105551564,-41.1223842597995,-55.0483209930851,-32.78739133528579,-3.4900332861675665,164.0833142641914,-23.98721393912516
0.256,-0.857361272065046,-205.37377484607322,-33.87122880294565,109.96019733072966,36.93397075623533,-39.180006829058755,-54.022516721154645,-37.881311050104316,5.8682299936419415,74.24695953018512,-38.32576258355848
0.264,-12.975663518479728,-184.1530134196579,-39.02838211870106,95.49387825660821,46.27091435113543,-34.881387009851565,-43.39873876676671,-50.18209549775099,20.062788830633277,25.96965503285711,-47.58800351113748
0.272,-17.99134408870543,-136.03008738269307,-49.64158525352929,80.95704016654298,45.265562700722825,-39.078002426244474,-47.36744188411898,-58.32005562583768,25.379132867731624,19.477054682669095,-55.67133848102493
0.28,-16.582424888848937,-87.19472411110014,-54.893697739148955,102.88358856534119,40.49438719167039,-45.34563386511581,-56.145644592992554,-56.731897628848685,22.87779326667591,14.206524665611246,-53.901156176638075
0.288,-35.65500484758923,-64.70107225939887,-61.988055924384796,138.57716892808472,39.92018832662705,-45.65750015514932,-46.96213672603102,-59.03706822167527,23.983721407777256,5.065648876294523,-39.26968615952854
0.296,-58.42563338855364,-47.875491036887354,-69.27399572159331,151.96675020703466,40.3197413814099,-44.46474009892574,-35.4914550612763,-63.771321824529274,44.35687684731017,-5.172521241271913,-27.637304154673878
0.304,-47.49568311613445,-28.163574224515955,-60.80112990965286,149.38309288196461,38.5589338324658,-42.195528954446665,-38.14978262190905,-53.845564066443124,83.2902161127564,-39.275320639089735,-30.01948586892698
0.312,-26.363617472808606,-23.72720903103071,-45.438377642343504,146.50863892103027,40.57779831306029,-35.35893143342832,-39.024735657364545,-36.58544289958073,121.55394951645566,-86.34707650293875,-40.00839717491796
0.32,-25.510483160057582,-33.28651437440106,-38.08190495725647,145.93940481609513,44.929585732705334,-29.357475258351226,-33.64354663166979,-28.823748919257795,145.82658559975883,-101.31589403777159,-48.572242712379776
0.328,-17.009521142172595,-56.444917181611295,-25.815908988113453,146.15746592472436,40.14948195460547,-24.984627748101502,-32.931413418575,-19.345722677994992,155.7862977564254,-70.3142486290401,-51.3509594958187
0.336,10.019659574461317,-109.18982231688254,-6.245852433245332,138.9896504216163,26.535503831570406,-13.82752720889719,-25.35576504763499,3.3066490075550203,154.90854630760174,-7.995724140943027,-45.04573301604405
0.344,22.241629681004508,-176.91063691681393,2.35048212144406,129.2529782233501,14.190184700603938,0.8123759615805491,-3.640501259341117,26.152924917075108,142.25536933586963,73.55083117092951,-30.031548228844965
0.352,19.855956870433847,-220.55113653212354,6.371988052604844,131.5572499763795,3.883855230537751,8.609016599214616,10.98802555401449,40.41059571162072,114.92714701135407,151.88113299219123,-13.961469203135605
0.36,24.33241003652937,-226.86092712938475,17.964886533275045,120.62076895265818,-5.407270581535532,11.778468381328251,12.030962352291867,45.53992677476786,88.66415719304048,190.27737920721296,-6.560916084026541
0.368,25.74473021860462,-205.9358345461228,20.919284924229284,68.14269685326084,-6.678930493315252,13.911699023477027,12.711603483896216,35.999486807678906,86.98026952105918,171.74948966126377,-10.727723757096594
0.376,16.975723718953883,-174.11109342463632,9.849915143579324,18.008204066479607,1.3153327614201262,10.485014977285262,9.795283574711332,19.382840871401815,97.71243622523707,121.74444273149376,-20.490242077654845
0.384,8.462797586493297,-150.15068540333587,3.823871653302475,13.73014002789423,10.147117524670621,5.452722727069489,3.1843595648373624,11.873217799283783,90.52566927544693,80.21449944905821,-26.93734418691114
0.392,3.2695369715762976,-133.14728323980944,7.301091133386192,16.539777421102666,12.868206417213237,9.082969899813301,9.376197699295371,12.687315975728081,64.63760022181727,54.224878775854386,-23.197125703389187
0.4,4.052673851053149,-103.01823645133256,9.927388578068454,-4.591401008653557,7.980053827180575,14.386163913850195,19.098791775465497,14.422348483445942,31.06868706868628,27.784007295097826,-7.307309682025484
0.408,0.7527579649338464,-54.891171398588426,7.528547459392428,-13.308992782204921,1.2623602366596973,6.581416234999377,8.84094248863938,14.484568257662323,-6.429506808057797,6.056478672398845,13.65687037592083
0.416,-19.758907853264322,-4.452194768799752,6.669047752273234,-0.9109187601932432,-1.5911709651562704,-3.670394416096602,-4.048077366461561,13.441989798713687,-33.1120489750911,-3.5583751199869855,28.600042944230452
0.424,-22.09514136424454,33.206526611677816,19.246454857347004,-11.034705296787193,-7.125587353237043,5.298515219839722,7.341333165726688,19.416674078237925,-42.38908457949992,-21.277377732616213,34.658568274629886
0.432,11.21327078556916,57.238960601580224,32.595571749793486,-46.191257570034914,-16.26770194911792,19.35701569847509,20.843623231044784,25.28888781765751,-51.60120956095786,-52.73942708604899,34.51619960630666
0.44,14.884124919781327,83.4678499878045,17.500622444603874,-71.21777721879681,-12.977527013239508,9.66370360212536,8.348637905757442,7.341954755619805,-67.88090205904561,-76.05105091599209,28.04404625303017
0.448,-21.88313647064622,121.70496426968516,-5.98794008947999,-93.58779781753552,-1.272888190989979,-5.2034083403051055,-4.343994564515934,-16.643641865442007,-88.00657412777453,-89.15854522150059,20.405856793004823
0.456,-16.705661407891274,160.06833543129864,6.420623097880487,-132.3363379161492,-8.4433787220002,9.732574830061793,14.554422787806303,-6.701996264773944,-116.50465809485196,-100.1807482367724,23.345842208321734
0.464,21.684673750043032,196.8409491551739,33.93448733924983,-155.30624988615475,-30.211144136352626,33.12863775166214,39.8135395806083,14.261743905514502,-138.48394381443148,-102.03322779953078,35.478688532718444
0.472,10.212766777113735,246.08892834188507,32.405392654274166,-142.89877020035587,-36.6723399362195,28.641436660310887,36.71820343155052,3.7260491996469103,-130.11752401628814,-100.450763393024,40.268407999288165
0.48,-23.107027049025014,291.0898892794229,16.89713426253649,-138.84216711096724,-30.19857876312605,14.678765732907475,22.853734584951848,-15.154400512064496,-108.59088472146675,-105.90962129356315,31.70632746181792
0.488,-6.203769407029675,299.59843449217436,16.67726839125296,-166.45509788735288,-32.841112909964245,18.48272859835588,24.007285801080958,-8.509124511791136,-102.50307823307062,-109.22783804873099,23.67180218273863
0.496,35.881875057253836,286.59881533934777,26.90810753105623,-196.09064020958272,-44.79543821257999,28.246700405488916,29.22460513594997,10.688416348318903,-101.50672623092142,-107.05785086950912,28.47783134049792
