time,C3,C4,Cz,FC1,FC2,FC5,FC6,CP1,CP2,CP5,CP6
-0.2,-28.755293322928864,49.684396815643474,-18.399543017877914,49.94438084988183,16.07570248402358,-22.154721965173938,-29.872091372566505,-21.663532564423353,-64.71896565476764,7.996699898748474,-27.032554135802805
-0.192,-37.916071532998245,39.15875300917887,-17.481846866704384,48.28290871701529,14.511703305656496,-17.808493593632804,-19.250782033312955,-19.280380082721994,-59.77366707754156,10.861677541908389,-15.341682182337781
-0.184,-44.25794802309953,27.312377945356882,-16.27619916110669,43.66170952197716,15.739753575495563,-16.093150444269448,-15.976897822141297,-12.482953436710488,-55.881605674723644,10.846924745140395,-9.937189803437747
-0.176,-19.6712634905118,16.739237919446097,-16.013030357380952,26.033930106255404,13.31753800022977,-15.754951960227507,-21.53654917556851,-9.33004037043126,-51.558574389709726,15.155467037170009,-19.29045206663026
-0.168,-14.680829639447284,18.65686535361879,-21.311306840272348,0.3463789322061729,12.63203305054762,-16.158380713051987,-22.04467215306739,-18.468679034537868,-39.032088149823515,20.42478905968828,-27.888748617243827
-0.16,-30.693135010612185,24.454123011928978,-16.463392439683194,-2.43670626302476,11.69732768895159,-13.32409933269778,-15.060778408850434,-17.861863123459422,-29.645438293353536,15.289217574086479,-18.199179776380035
-0.152,-13.624344496281497,12.769086825341189,0.47782207254164066,7.942221366766974,3.912012631464099,-5.493462351704824,-9.367122939460193,-0.7718346676260628,-24.206574717445775,11.998073033130893,-6.486805142077625
-0.144,7.26893174468138,-6.154560097322025,3.2736815564954322,-2.1020434638093453,0.34830414739959376,-2.666830649519699,-9.889898526495985,5.352768105196584,-12.196657825246485,21.25839763687902,-10.750159961199785
-0.136,-6.788152770947309,-12.308849999559829,-6.574173656142416,-13.727440739795947,5.265667967044642,-7.252281738077081,-12.182963908076369,-1.4330438908645888,-9.585971005760106,21.919405364601072,-10.735847966855689
-0.128,-19.160380377795626,-11.356240555103088,-7.512487341204354,-5.194438857863164,5.689618753934317,-8.585762223420744,-9.159752595940596,-4.015290157506132,-23.346479310354948,7.531439775733648,5.7156088478140115
-0.12,-16.730209478270368,-6.876176266390439,-6.890362744071976,-5.172457846523722,3.179116301553969,-6.386874323590024,-4.655088398809502,-8.101770787965691,-20.66488391285657,6.314823880488365,7.639401490166968
-0.112,-14.70331785733567,4.271093904302088,-8.061402071351306,-23.265434938274048,4.264490489263717,-3.4286682215376243,-2.894727759129416,-11.371621822895714,4.793178596448289,19.868125313815888,-13.790643582345364
-0.104,-0.4284005018851266,7.1221244641759265,3.8117340610655552,-32.918556417199774,0.32906606716377235,5.545554268855763,4.334605548364332,-1.2215874707835477,14.798755273265993,17.053738821571866,-18.914980442881163
-0.096,11.883241813730152,-3.955145384402979,12.922918449228755,-32.558536526995596,-5.841276517630332,11.366818813935993,12.510758346169393,4.872586137923118,-0.227750864350134,-1.5461932910704985,1.7637947873909878
-0.088,-1.1195702882609464,-10.54008416962063,1.3002900713369432,-32.88230640483976,-2.267668966786017,2.912730822311219,6.2498631783887175,-4.577261209286008,-11.226692786412853,-7.662034139153986,12.028874587869398
-0.08,-6.803268523741715,-9.563437628951373,-4.606514206225914,-28.516092647179878,0.9008442525012931,-2.175440977910692,-0.9036168581894102,-5.469756881000199,-2.332979672366553,0.5588174908391761,5.057924196280082
-0.072,11.951254365249959,-11.420628107692913,9.126932823151131,-22.520284668510406,-6.820693369111558,8.3010204040017,9.125711699012587,7.3699509132966945,18.344092603769294,5.606032062366451,4.505993926525401
-0.064,23.006525267096496,-10.717814818897601,15.61911304017176,-17.578853274487034,-12.990630779228303,14.119655337943916,16.52675844496139,12.242389718111221,34.208305751831276,3.101330944100696,10.043751762566279
-0.056,19.15016887193776,-4.241382187808267,7.513143754728296,-0.9991017011936009,-10.191010733655867,6.135391039976117,6.9642603440104205,7.5177404302713295,35.50881740685527,-4.782938018110318,10.754105100557975
-0.048,13.911586234522627,-2.995224497457478,4.419844146664105,19.530103073062037,-6.613051741587385,2.432699539620401,3.6818180386019588,4.07725613565627,31.174179352707053,-16.99032235492686,12.766951514273066
-0.04,13.537199760616577,-11.187000468660498,11.25937567297459,20.8724971020544,-8.190446124464062,10.430582335154158,16.919080001915454,6.375958434608929,31.779729424882753,-25.885059649321402,20.645574945666727
-0.032,32.53122829412788,-23.430046184203473,20.303610671672217,11.476787503076787,-15.154848210730416,18.455971747664353,24.84273603731781,19.437991995742912,35.27887399244823,-26.676132202514257,28.75684309756911
-0.024,55.20620372181542,-30.117038731643113,24.065209821798945,11.000662438365989,-19.7512514357619,18.46644348977836,18.52239051347772,32.85955288627642,41.62423191042086,-26.25410687183832,29.222027664902214
-0.016,41.07227531205516,-22.77174064839376,16.69509698313506,8.547750416270587,-12.449474472238819,14.034630765952691,13.856074700372554,25.55515807649739,51.11580407344196,-28.384294105340192,17.05210574074037
-0.008,12.162105723952994,-12.089701480666005,5.470607948028363,-7.851744385088197,-2.853235798748419,12.305950328611939,18.54983951631282,7.335980257298446,55.006355436388894,-28.731172579848323,4.604880816939224
0.0,13.651464204329791,-10.442988022218826,3.33087762902866,-19.915331892147336,-4.739590565286952,12.77566960100755,20.711045582703434,3.0522824093330767,50.766005512253216,-28.872706968144968,7.810405197930254
0.008,23.72255645458279,-1.6754582074567608,9.706194376710723,-11.07573104666634,-9.825132174967873,9.91011073698317,12.463816911442848,7.136185027668931,46.49392037175951,-32.35352202325591,13.91464327437589
0.016,19.15634336125028,19.592689233265077,18.31918499042827,6.0497580409745675,-10.69059666961651,7.257055600558554,4.975670748639943,5.432008445550134,50.15033769606526,-32.67737729037511,8.931526701592208
0.024,22.169581060140356,20.740786635778726,24.88966062450185,10.030262172448383,-14.320073146483882,10.74559137876689,8.840452917420349,4.751420078540115,65.45834376768056,-27.06518078112484,8.204086756323704
0.032,28.80646474668376,-9.104504979222613,24.111475795002953,-5.853115223896772,-15.588537078590987,14.108849109810816,14.30902000495191,10.249749527638578,82.36659900623185,-25.055419198797836,14.789507294796085
0.04,23.776116544955332,-42.39357073321039,20.814795986785885,-30.649708923577446,-6.273600607104223,12.618375292281858,9.8360821038527,18.30330193176855,87.64215494728079,-28.48114997183953,7.779698158430649
0.048,30.100302837610734,-67.1778613241531,25.380386081183214,-46.04206844607666,0.49108872398044456,15.094155823809471,6.569612260117916,31.34450733557764,91.5743161024587,-29.46081515954118,-6.233354941292016
0.056,44.437024854597404,-79.94827838660429,30.61347192242721,-48.84945239139121,-4.0633733170803685,24.478036348764697,18.901105243111054,44.64013465525128,106.18660130525363,-31.836389211107704,-0.9501845654572371
0.064,34.611834098747785,-66.0875492672863,26.231587269655538,-50.38984227542273,-8.743839383448597,28.051069539727138,31.50719246260042,46.04799814925993,123.22465225052026,-43.92969745063368,17.374784667091895
0.072,26.794196856821202,-48.017554712527925,24.105224099576358,-43.42751265188666,-9.765605058337641,20.818298029010048,21.766466765999713,43.465202254709176,144.33094147026802,-55.62562439088186,23.01954276398514
0.08,52.04563524579405,-68.77774946532517,35.54790279940921,-16.188416622883643,-12.416646545144312,17.193017433750825,6.216291496215994,51.04218871752008,171.75223548275613,-50.37209543004254,14.35862263408162
0.088,65.79012119189858,-109.45512556292248,48.921590783431824,1.3827563093595727,-12.860450413541967,25.609732495001115,13.879373838458399,57.83537703540382,177.84709909418754,-34.17068786860319,9.017411339280631
0.096,45.26799527990064,-126.38740141775394,51.480967397468206,-18.711270015256595,-7.496852624692473,32.97900648560907,29.615747982930802,51.44667076684562,155.00059503299036,-32.88408691062295,12.11965877070628
0.104,41.5016104607785,-132.4610939508267,44.742159777988526,-40.491253268534415,-0.8720151934408978,29.846515098909226,26.636738746970174,44.50506169050884,139.74782195571888,-56.91074734115685,12.231886713938696
0.112,65.84688686111163,-140.71632445473372,34.63988780851309,-31.20471017471868,2.4596534849150054,26.573046335480175,19.91198535364238,48.67971932061997,144.68990626171475,-83.05613174238269,6.772633581777243
0.12,77.33312200533827,-114.05196829084316,29.86498802429008,-23.65138178919066,-1.8343610238625794,30.44176435956572,26.385405942286834,57.30480121799463,145.82631459242657,-90.14497411939428,7.133928094948107
0.128,77.37481249321928,-51.59216474729049,36.27553210743178,-41.475969483206,-13.257534569420654,34.09771434913852,30.121356934420522,63.06720730168523,130.95143439986805,-91.21910419646638,14.860231093863003
0.136,79.64589184727053,-13.857798299707863,42.188604728578085,-59.026417646107,-19.175352496399082,32.99770388062154,25.454231895298275,62.07233683222621,99.6684805557605,-98.13688423206212,20.246050265721323
0.144,56.87808011131918,-18.179841656549463,33.84108279355279,-65.17257742154919,-9.732903379372196,27.399352298304432,22.298652138877607,47.96567771828098,56.43043256205985,-94.2122655022548,17.1077953558194
0.152,11.11133375246096,-25.296510292784227,21.043317329576098,-69.05387287301825,8.106180826407451,15.848913898867345,12.276719754163695,24.424888230493504,18.509979890502674,-76.56667742095304,1.2218877519044113
0.16,-7.401445342212009,-29.957176445994612,20.89846053764388,-65.43990183960513,20.432442960542392,8.561705945965805,-0.3702124283151361,9.1481823518857,-4.2504947189783335,-66.63145016389129,-21.250023221607968
0.168,10.578257630757497,-49.91777252058703,29.67792575349915,-60.6915898591238,20.310100724146782,19.078396053169794,11.650875601416194,9.791568169924464,-13.267161827532844,-63.52312450635153,-31.09275095027588
0.176,23.27596652607978,-57.618114197681706,29.758208408123473,-70.46081012114333,13.841726550405438,31.04999178679172,32.57042968571762,10.067720608270573,-10.248428045415997,-55.860503458863136,-26.41879196771891
0.184,10.507345057436691,-24.984435127023954,12.935292281244095,-79.29612859066071,12.286465876784337,19.550387420175387,22.550957870485714,-4.58282588409854,-11.864692486826057,-58.25433341389365,-19.453461912912623
0.192,-7.210569008088197,16.05579042430308,-7.6424594961884456,-70.79597903169815,12.834108636261982,1.5698690968032096,4.645321347401261,-20.075655177245057,-29.95637388613582,-74.81788907322931,-5.022539206261958
0.2,-6.004811798033398,30.746620209516305,-10.143475910659427,-58.74328879392813,5.248188827930194,7.195788097016534,19.28922514898159,-14.927563400673892,-39.61272850169027,-81.91844044485016,16.16066902063666
0.208,4.83522521868298,33.969416135371645,3.748002922264004,-51.08998253658473,-2.324484219544772,22.760102801012707,39.424221478072134,4.089153010330843,-20.868608313585785,-76.70738519306651,19.26032438664433
0.216,-2.2674836126218407,46.39109573634599,9.90086868281958,-40.78943198443628,3.371795454629368,21.549812691484995,30.84671424050256,16.531989867849894,11.52063815408732,-74.9445622032055,-0.9026835326047896
0.224,-15.151721573034342,59.72325774242897,3.0822579744928067,-23.848226298968143,13.133484977481599,12.081871803971245,14.069433503544168,21.285199668739768,45.618576138743386,-76.36046653962555,-22.130117716857416
0.232,0.5897879119120136,53.0253149796279,0.6035873006558454,-0.5141600024736173,14.725831611632195,12.018736731116464,11.231283627626137,26.83564989373433,76.93801914148295,-82.10064730134552,-33.50197114187857
0.24,28.690631540994378,10.671154271797304,7.151712922889365,11.832697135639439,14.723348257329146,19.989729098707624,19.270616471030046,33.15803934859278,89.1146122425861,-96.19350856420525,-34.19228652067537
0.248,34.12653592689238,-51.60713287399837,13.35362290199971,6.15988183259508,18.63964644714,27.275300524465443,30.187298862491062,39.44440659732641,77.65400886891797,-100.598770000845,-23.96491897166953
0.256,26.466533556291942,-83.4686468453503,14.126348496686953,17.53209828606884,21.767584408647092,23.062114133620494,24.61060141438972,42.58701029289524,57.90031608668745,-86.73527915516014,-15.975373610672383
0.264,19.614696414164303,-63.801685932509926,9.145369308042678,39.5697383766193,23.78234444135295,7.3323008010032495,0.06425959968727411,33.90308049674727,36.60997181396851,-79.95013327939937,-18.998937777411115
0.272,6.076171810279053,-31.674825683759234,5.449121095670483,11.08833827621661,24.730951275466072,3.422183146512982,-3.421327650862189,19.500019541020126,14.750519053585977,-90.97607120489525,-19.13807959367044
0.28,-7.450427816725967,-22.089394479004458,11.454574536753867,-42.56348534380891,20.78245918328962,19.405888368179543,25.21703680008063,15.52701011490413,5.9076101993070775,-95.1821532995397,-9.84787142675015
0.288,-12.522007379777516,-26.577453489906766,17.268818454153813,-46.88343954747836,16.808446765968142,28.464547491507602,41.05159022291307,16.334712494827457,11.522892225907793,-81.31921718935125,-5.338463262501294
0.296,-12.936053718414463,-28.408222837863875,10.727145216455495,-33.342448494500765,18.8839046112442,20.431115320478135,30.04115446067843,8.730909237127253,-2.626409122038908,-72.67235903574758,-8.3429157235062
0.304,-5.802499039001662,-23.687758447137348,2.396705871562043,-47.27368319947211,20.157469258939663,14.852691430993083,22.856588911625767,1.8580434352185735,-54.25637520882217,-83.86174576943982,-3.1444488755475635
0.312,-1.7049648652584075,-13.224087867667615,2.441047016735861,-50.92608259791702,15.204545149703314,16.043787666109633,26.70614902448987,4.615516168573677,-95.29079340046265,-92.41954561289653,14.636411404012295
0.32,-12.856008701892128,-0.5655105858417717,5.473362179739301,-47.33131721193879,8.445221377635184,16.054943463979974,29.417949865103367,9.31705651387165,-85.102340035165,-81.62947277954702,30.023669446260836
0.328,-10.660134036719988,14.991240859491363,11.051434173772554,-74.78212491481462,2.3925717081855016,18.986066429684225,30.493197711254965,14.110007314295762,-61.75492231292489,-75.39285914052611,29.336727789647203
0.336,10.051884654620142,36.88394590657393,18.263817490144177,-93.6760715090043,-0.1957982354870261,23.15996317596292,28.448719786846983,18.86318432152294,-61.184801733892655,-87.5150983385248,15.48564788631318
0.344,0.19535754699908703,52.89390020251112,16.200656702255245,-78.0371520334244,4.772748774532126,18.491757957570105,21.521456983117965,13.591234217443063,-57.785481328326945,-91.58015130707274,5.171674772017418
0.352,-30.614047423400244,47.42477323476291,7.789886897614648,-74.58506169031936,10.301781285719345,9.015833548930864,13.987238607417245,2.226034894690609,-42.605209153573895,-79.93281354216143,8.199622478305738
0.36,-23.481963916770074,30.761602138080686,6.637466612008104,-83.5081850298729,8.533965372690847,4.345286674241261,5.649321113211198,0.0065462744825324345,-36.57052531154739,-75.35273819140212,12.033614076202484
0.368,1.7456862993656137,23.286741148098685,9.180718873973047,-69.30012096044024,5.598920377677742,3.8161779961531686,-0.6185193781869232,3.5851742043542725,-22.752164527493942,-76.69793099323105,5.052139773744292
0.376,1.4254513432756934,25.051897990947037,6.8638584059813255,-49.67907199299594,5.241158004903975,3.085356339499898,-0.7801759201520048,4.8528862012303815,13.679529232854723,-73.1473105859736,0.6583476373499807
0.384,1.5034364268238867,24.75706184152392,2.7346784988422996,-39.07981460902796,2.660194448189782,-1.1626013408123332,-5.3237649832316105,7.717517867238566,37.821254739061025,-74.78432319890695,8.79065492259718
0.392,12.704699111505636,17.684254689897713,-3.1660340191099605,-20.21898715082205,1.6139645302569894,-8.841903375386469,-17.22128260651835,8.277825610389351,36.64280092954909,-74.68622395777167,12.393397482924447
0.4,2.8329081621033407,4.774095198646987,-14.786291097574042,-2.0203191394784965,7.734471746706998,-16.076866108076896,-24.379426678712022,-0.31155972783636865,39.403515873465004,-51.67276216556078,1.284427103867264
0.408,-17.52475026947949,-6.763007696576864,-28.225224381728857,7.772555700149846,14.62539489913104,-24.66936378253568,-32.10899650343646,-10.691818334904813,48.52178453719502,-18.982283531289692,-10.715641481859123
0.416,-22.994940686896417,-5.223056969292875,-35.45611766343866,26.698729149928557,16.043619180011852,-34.34171456329608,-45.21618830659449,-18.97400146466913,47.97542282587278,2.508714457995987,-16.958140650578805
0.424,-26.500038815768782,10.744224119245345,-31.182953037919273,43.837922626904586,12.7416062273917,-33.36820373856329,-43.47833952765531,-27.01697634586246,47.95916390078633,21.551079745582555,-22.969563601967927
0.432,-29.4304353503362,28.272562612222412,-19.564045987316533,42.311819388915694,5.480620300651051,-23.565284743674386,-29.916346460629924,-25.90334892260015,57.609044623105945,43.17232173240534,-25.581317899952644
0.44,-17.24232475656557,31.408473566137012,-12.114064971887178,46.74256988788466,-2.9278215115693684,-21.697115778542333,-31.340321693858314,-14.69263980943628,65.26121088161072,59.83974263306166,-20.765933990303555
0.448,-2.5616144645121763,9.376259412018195,-10.570929505935913,65.17245547421163,-8.303626721605063,-23.63719344013088,-35.61213946818453,-10.987966080076804,62.79575930575839,78.7281740823519,-13.60128682908864
0.456,0.41636371965662944,-30.038293224247095,-11.127918785755888,70.53683208877165,-10.182265455192777,-18.953440261772958,-24.06866751864679,-20.331878211996486,47.9448708525484,103.85960936904873,-7.284636659879191
0.464,-0.8627353894751463,-56.47886107390346,-15.259954965253648,68.3401207845443,-9.050212918258817,-18.54895913979026,-19.870574851822024,-26.647499949663054,19.595007233704827,120.72882425070891,-2.7512877041888633
0.472,5.037261512505272,-53.48686857781823,-10.645016175392294,74.51156193527284,-10.20807385118248,-18.100209305327745,-22.89123840370778,-15.417566472890979,-9.441632363729893,125.35208530197649,-0.7490952021901887
0.48,26.59228182754257,-41.11268969199659,17.867908989233104,62.655406952360835,-23.428348355586103,4.193766805307498,1.1239156464307762,10.186504345376052,-19.57778580588638,128.31115761165861,6.141319331101411
0.488,52.44096914443696,-36.25777431849837,48.53598178355755,23.870010242486632,-42.725968085383236,32.55554401647037,36.24396916992672,30.29267284025992,-7.92423527364428,130.86244817270213,21.121734280422654
0.496,58.8925008622866,-33.645705124608384,54.361147092964835,-8.058985835308508,-50.26461379281762,39.09604294002982,45.217359735391675,32.802996640984105,5.066356131399854,127.624589499912,30.82405757742248
