time,C3,C4,Cz,FC1,FC2,FC5,FC6,CP1,CP2,CP5,CP6
-0.2,-23.86726961613651,36.626074097079865,-18.88381973020096,52.0876558250768,5.37987641408187,-0.5908756333324964,12.726044434988617,-7.101904393497083,-36.97338522568002,1.5505107204290534,1.5358929035072815
-0.192,-16.59903253232723,48.16434608626753,-17.298737960414808,60.77213017397285,1.7379596233469885,2.1863067304860206,16.082384035575046,-1.9838317428396262,-24.346123303646923,-1.5506056227533793,2.1678073155565527
-0.184,-25.301051517803643,52.53833173170524,-15.852969886395758,72.11135541346945,0.39048080081996295,-2.244482624749777,9.138836964243072,-0.12119585215431034,4.228200089102934,8.603856310670407,2.7028541378478783
-0.176,-12.776315608057088,40.87090267835217,-7.904785380467659,73.81905192012647,-2.249506643071417,-0.10448870492554445,6.9512767481293105,9.41700202432692,18.678421762575095,10.688921723701585,1.5785797985927235
-0.168,6.127648286603306,23.114237247857726,-1.3919080454177106,63.01773013529834,-4.889390364105098,4.24585640580769,7.839133829970324,17.918750981181866,11.908197293235888,15.648838382805112,-0.5419350719394846
-0.16,5.949071323232682,5.567477097482915,2.1521384167547826,47.514909129834706,-7.9177082843554185,1.9210006379390927,1.9885630533327887,18.953829403928296,7.837978040740952,42.669676304964966,1.5794334496553242
-0.152,4.593388935817294,-9.787681292050248,7.715117134456844,31.41228577407666,-11.607451410353622,1.755485714300119,-0.18976734571021076,20.95394442016858,2.0486136950603235,65.21176755845369,6.753472472305565
-0.144,8.223002931628278,-12.986676386247638,8.942523941405565,22.849070570235746,-10.587859869653734,4.362037885646466,3.175825673192086,19.127744522978567,-15.712067213682152,60.23224741899042,5.6796980515735855
-0.136,2.10442035874191,-4.06914636397055,1.5105906786278935,19.923649229303255,-3.055924561565305,0.2622306739806541,-0.5565798077547276,4.6991603378531,-25.794600775938036,38.956192689170344,-3.16625464578874
-0.128,-5.570004582338059,3.6564987387924592,-3.7351302372609103,2.918101584075456,3.843337084760491,-2.8410951332577006,-3.4770665481425618,-7.043460891487666,-14.642978457581165,7.048687949796405,-8.614405473517797
-0.12,-2.4643572605971964,4.456269244483634,0.14030300277248964,-20.864889010604113,5.647405728825648,2.974379966564211,3.3907192096589815,-2.71393699812619,10.544472693520563,-24.867400783588817,-8.9695130643889
-0.112,5.78778138851574,-4.725111738000918,5.785968806980982,-23.828324334452535,6.110176854193822,7.081678531490009,5.495998383861154,4.363046011592462,33.70073894260592,-30.50938133596043,-15.208388426250757
-0.104,8.219371006472581,-30.472701096557635,5.375277499691918,-23.08390851744704,8.604097782632355,4.8366920467186265,0.7222012316310781,0.7990089144490878,32.738243205513854,-12.329352685311495,-22.25848439177425
-0.096,-4.103997308359524,-61.668985417842315,0.5715250909944697,-42.7167270332188,11.943952262602611,2.0183997640505273,0.5030602287796071,-6.7982298238939745,9.291435003340359,4.130724589831973,-15.441270354137389
-0.088,-16.591506131221628,-72.08621599535495,-0.5840013017287823,-47.61913348189823,12.904531265603941,-1.9148421412791556,-2.84051554078758,-6.195268654712996,-11.034273809394236,8.36573457470247,-2.8402520360289927
-0.08,-0.28240810983917136,-55.71108613744659,5.107569796732543,-21.17796969936152,8.11288100173397,-3.6235513098940775,-9.73548972931462,1.7901957847560144,-24.16714157450154,-1.4461132776820802,1.6457788428887126
-0.072,25.915191233889907,-30.776203817633945,9.940526527357898,-12.32620955597124,-0.44953367321810206,1.8459433155900622,-4.255394966247213,2.5530151309687588,-33.3616349125646,-19.089377672313468,5.060466732555191
-0.064,18.44348807445402,-9.406128057029218,6.660465719742233,-28.663387034260644,-4.50232267880729,3.1001123212869364,2.647410690509511,-9.101001824333357,-24.137618304281197,-26.809897489966936,12.295897184926282
-0.056,-5.800389510019198,8.458029512188821,-1.7893243475494036,-26.90087887613213,-1.980896530165666,-4.338756347800496,-2.775051846995511,-18.906967281775884,-4.721127407641109,-23.326256407765634,13.04669055086507
-0.048,-7.384241655069283,19.10184038356249,-8.425615156891833,-20.614930019858388,0.004106955373229207,-4.415064386669208,-0.931550633958542,-19.869463599445552,-0.3182559856664166,-22.750748994429497,6.192145083185884
-0.04,-0.17299320366107013,20.76498780166364,-8.196166064700892,-38.5038039830007,-0.6616883435776764,1.9150660055719078,7.914765146309118,-18.86155298066712,-3.704556325600608,-26.167315238766104,1.9622674039747248
-0.032,-4.3320722564513465,21.231634919791635,-0.844550802228313,-41.013774702587426,-0.5423790827594976,-2.025828669031752,-2.2581507009028163,-14.088907596114487,-1.000780604751337,-26.660664872446933,3.3550349990698165
-0.024,-3.0611243246598048,19.643825087361396,6.666191820895949,-10.623173980277002,-1.7565098987228092,-8.46032195756211,-16.71987159528336,-3.5018212130783573,3.401242577506988,-21.604279938743762,6.8626817668113596
-0.016,9.438499469889605,7.036041411608156,8.489391264005596,-2.7858604919804906,-5.820478929988657,-3.950959450692165,-10.840742172876336,2.981672596169802,16.384729614513173,-12.465313635709604,8.455484824589401
-0.008,16.931387509784336,-7.924683548011271,7.606702694726389,-33.10063586268692,-6.588621095332204,0.04381319031063938,-6.47068100204582,4.735594863113863,36.11136393519799,-6.96477418460936,3.243717102954397
0.0,16.573513097511125,-11.615876188052285,8.242716518111498,-52.60233317173247,-2.0685344082983947,-4.038736830548481,-17.525357740161425,7.9945778606392945,33.04090704801516,-6.565676083468921,-7.0773991570334305
0.008,12.87418303395585,-15.071751689205563,9.037969292588533,-47.56152336064383,2.352336522525764,-7.733004485389722,-24.714651807061063,4.769193943378208,9.676646932963088,-3.079581966035036,-13.196278925836006
0.016,8.458268719089082,-33.817238907260545,7.489322179447496,-50.033044120812185,5.729209948873212,-11.335480302686031,-28.62996284653686,-6.470616575623157,1.6092767044934495,-1.011947229970215,-13.490476080128204
0.024,11.357375751589117,-60.53557722034827,4.478527967126482,-71.54459033975073,9.743764471846319,-15.592105118587115,-36.5045003327471,-8.598804468163213,6.452639700181649,-6.639530387393938,-14.352139986286797
0.032,16.70781119855166,-79.7911802596562,3.4046619703137053,-90.67900083851765,10.9877233341865,-12.29435237654836,-32.886482453817116,0.5601448764793289,5.799906498426233,-5.579042976425066,-13.848830569595734
0.04,11.406491913304071,-85.35181450413411,6.702227197372025,-87.77325011588691,8.161148354936012,-5.646808770732688,-20.73905987847062,6.084735055776183,14.684033257476285,6.485291235813132,-8.470373435810558
0.048,7.90230235759643,-83.05679033004796,13.246582280327289,-72.57670701357387,5.9715629891478175,-4.282258546525905,-19.467791598558627,7.872259020226991,31.978285320118175,11.545060260568055,-7.343447589865296
0.056,19.61203679860794,-88.21130516732954,19.00939197989104,-68.29276493734811,6.10308017325333,-2.4912317361679857,-21.648186128497876,12.346247899108901,27.949990348694627,10.7248452223796,-14.009239576228087
0.064,27.636912480025902,-103.8097854825568,19.564057363787,-72.20048288676433,6.23965738388304,-0.3913447062011422,-19.646056002551145,12.01198052632664,15.198171794798835,19.10962064932666,-16.76332703993926
0.072,22.326339474741786,-113.55110818646186,15.914705159093261,-68.68046050464976,6.087575300139903,-4.649444002134711,-23.362078811434696,4.317577966271998,26.926020709487524,27.959690833026347,-14.14511933323994
0.08,22.99445561876992,-114.3103060993471,16.844903740713203,-61.171615393722945,4.753422374086583,-4.063703516207485,-21.82005471065443,3.573853332374732,42.583242927175355,25.7725495287578,-12.335136913876571
0.088,31.24653040615052,-119.3924299817154,24.174667659346973,-51.89083778412299,0.34745441123885523,7.387153937453687,-4.2930480698716655,14.751113946002969,32.733134701115546,22.77724751280822,-3.0055709358181093
0.096,30.956214704786372,-124.30998921275535,25.25591953226281,-37.709412682057184,-2.9979444014725005,10.978982684204214,3.8748120782799735,22.199426480866677,18.71814953800756,26.125169715017396,10.691161410234493
0.104,27.060617430767103,-116.9698353891971,16.79969179957863,-34.90692555176943,-0.19738756130739787,3.419927340122826,-6.5885668782898135,18.127697091041977,19.553014737466505,30.675473599959936,4.751949421416304
0.112,27.859190662061383,-107.88573860981633,12.719585917716289,-47.47839167769219,3.844546940919814,2.836043530088244,-9.332612560374523,14.87276272830297,21.23549116575948,33.68134428297097,-12.218212439073302
0.12,23.36150086052461,-108.99117619041134,15.08612263705237,-50.44537981391825,2.466923430861892,6.128056466323533,-3.1354404358093846,17.210424050125543,25.512348644281914,34.49715300825846,-7.233084079678985
0.128,17.230692044189368,-112.95402537988066,14.200235511903974,-45.24624677821227,-1.0842374794774428,2.67444249082525,-5.3423141907292635,16.989547286333305,42.59618912020559,34.73729876381559,7.0572143716515185
0.136,28.609601039223485,-114.94797056865673,15.724304466995134,-52.93263640687665,-2.9284523037150145,4.291959399601591,-5.902274537229427,19.319531860705435,50.73842673041049,35.9157371279428,2.354687010801937
0.144,45.06836320818853,-116.51087370277666,24.194971353770303,-57.23713730858886,-5.3630520692498775,11.021471258716984,-1.1194917782594214,29.326370194846696,37.4447430377995,29.987295312777817,0.6304408898529489
0.152,36.87366932880733,-110.39343757390029,24.18763878025372,-41.1427636263127,-6.445006466520405,4.059823655892139,-9.23472740398774,29.425879698506098,30.465455553990214,14.434478717045742,18.077984762143377
0.16,18.658390201029686,-97.01255509292153,13.923638256088841,-28.9820072660333,-2.0774589525564364,-6.604788545702845,-19.3970159408443,16.11993624922639,40.90935107397418,1.2935044193015883,21.624284131569112
0.168,22.887981497764887,-92.55298021855664,11.01108476276389,-33.452186952122474,1.9701621046892925,-1.3028474019683105,-11.452020859678798,13.136272713649525,48.08211112124273,-7.25683113330386,7.128453591169274
0.176,33.56970383339909,-97.9858020519142,13.300704899007563,-36.1991450580818,0.6388508328628285,3.1929112467603864,-6.332005746644225,20.30721410344449,49.90580297689992,-16.98638581589662,9.365044167770758
0.184,24.992501979484423,-96.91072122209354,9.994554880568995,-33.93634999358625,0.822034408751026,-5.281092492982519,-17.504991927179397,18.307791388620622,55.48732505935219,-21.49254542180252,18.55536986477817
0.192,16.3798108785627,-90.35797638740341,10.049198243269892,-37.349790821247254,5.106364066248135,-6.199739994737458,-19.64137235544323,15.13061049095981,58.66351277443406,-20.467081926596684,8.184872989328314
0.2,24.25124523615393,-94.0361356965023,16.269101633609598,-47.32606426073615,4.961848812107327,2.530534612058026,-9.42185797393414,20.756075066318214,65.0058960129248,-25.11620315062754,1.8762095632231102
0.208,31.90766618910018,-108.19605084950028,17.999686004435404,-59.84904987567228,-0.13469931783276712,3.1310889050543063,-8.33247403015404,21.955860492307956,83.5515765754147,-30.31685354921145,14.351697698588882
0.216,32.13383459945541,-120.45930280793387,19.564343183207132,-63.45060065868075,-1.164777889059445,1.5536561603962007,-10.952423813007508,19.142316102974686,91.12219144755343,-25.429028221739895,17.189512014498682
0.224,30.709196628142568,-124.54591304177016,24.715593956078248,-52.31938769490168,2.1556000042020527,5.273259221357342,-7.796795362290978,24.134899625738672,74.78686938983839,-17.268432733388458,8.468681298233177
0.232,24.539507502521985,-122.15076095690411,20.71149684757992,-49.86249915770907,3.23161429317329,2.0620907951307426,-11.507967639681123,27.20370635347851,67.67031138233399,-9.645167233521606,9.716322422075873
0.24,15.315204549976787,-117.9438976856945,8.7819594323089,-69.1200404706931,2.056788528987629,-6.171986408499924,-19.85108981183723,19.062368116692905,89.36227224007361,2.890371608329393,11.745547027335334
0.248,8.78520425420225,-113.74396214072506,1.5727418566438995,-83.83537657717142,1.8123980858815802,-6.20574355051499,-16.341921657067118,9.694200027518152,114.24400078534062,14.493463124656346,5.3472713823580085
0.256,5.151205823694908,-108.73926322934612,-3.78918685789545,-82.10913109347968,1.5862962777733896,-3.2229104282364975,-7.757373379082257,5.260989564489273,122.02412288956255,19.057874760248886,3.4658456845198367
0.264,7.956692656508182,-107.29505786398285,-8.637078191493453,-79.58869226930848,0.6425667469176014,-5.82900717135234,-10.278133665218846,3.345981413696524,118.63035417968311,20.85489456639504,5.516991600505907
0.272,13.046476824740964,-109.05914947036304,-5.365357302949426,-77.30200812209652,0.5151859750270924,-9.881464202229697,-19.306343814149116,2.2807567285807977,110.17654260559208,14.970968806779808,6.787061105679723
0.28,9.699674234430947,-100.02972975758148,2.14653921720115,-75.07875384967302,-0.3128211517334028,-9.640593864397681,-19.943681576015223,2.396769824686971,101.91734125010845,-4.53807023859634,15.515848050631186
0.288,5.279587479335046,-80.0557237891836,8.567107105175374,-78.98423888444722,-3.353335933528105,-4.687564597409564,-12.253175015304834,8.60376220364634,105.64202860690683,-24.24968689788293,25.44952422952074
0.296,4.464371572577745,-70.93972368735048,12.545394571112558,-75.84277648349622,-2.77900582357761,-2.3200253572105827,-10.573357196810008,16.087673673852866,118.1260840708091,-36.3076572855744,24.368381343953065
0.304,-3.04943427101996,-78.10410307968948,3.4820621373186484,-70.11243202948444,5.262657184349022,-7.327047437542571,-15.209275968346546,9.263395158020742,118.63842724934968,-48.06078481367588,18.477190125897373
0.312,-7.7779565602123775,-90.92707667944391,-13.862524946171497,-89.40843365774636,13.147343669907304,-8.131769453683074,-10.201552703233569,-1.707911831946093,107.76139634975442,-50.020545790829274,10.054449346738993
0.32,0.9942451950087561,-111.76775668047031,-13.237988575572604,-113.95784529488137,15.298514938503883,1.4334796037482656,1.3603758413745535,7.178313469545757,108.57555425396566,-34.90906061426959,-3.0742047309859575
0.328,6.84262735706044,-129.03405857569388,3.6714371376576342,-111.06998549453769,13.911653828738944,7.837659886813899,3.3527079952218757,24.190166846805678,120.45221274771056,-30.425392583795787,-4.126568219573294
0.336,7.774974845187922,-111.76896354739068,11.485267451822233,-103.02304353905457,5.87195664026577,7.042359826903874,2.047501203815164,27.58246780784575,129.96113037432838,-46.257657147491216,15.411461390573088
0.344,15.131738195377237,-76.6062869413476,11.351207989930922,-97.09234978249577,-7.659321632829232,7.039556552430399,5.214239928105306,25.185361284954595,150.9605744096782,-52.0672801417688,33.71190766303196
0.352,16.146984611136904,-73.93621532834143,16.322878868005784,-64.91768058205102,-10.435288715981004,4.425138280193601,0.08215629979632089,24.6809093822324,182.57577959770353,-46.8442948257239,32.920759842064136
0.36,9.33179825756896,-98.55530435308656,21.38000759154559,-29.48833380435264,-0.22188065465493612,-0.7266588840171784,-11.087660930724535,23.01681372466544,184.4162166888914,-45.81062309968592,19.02621501848686
0.368,12.848196146128501,-116.73385246743223,22.500997281470873,-26.82615899908014,3.8409499557399944,2.333121633419494,-9.152438421625098,25.722159475849583,156.41515195267866,-20.561412875251122,4.874068123456606
0.376,17.519373997651456,-134.90647572007882,22.228034180098902,-32.39713193612547,-1.6648568754846729,8.040924391355949,-0.5087055844245615,29.398008047336802,142.09993444562926,37.7031045005986,-1.1267409197914222
0.384,14.674848350096743,-149.46415016237754,17.2390015005522,-29.690520796613853,-7.556592864421455,4.149713657652443,-3.2046531025432943,23.88803937951827,125.991614445111,90.43443229678863,3.021418211738862
0.392,22.780757202221615,-127.42953959058123,9.979478140984959,-37.77943059460471,-20.10817836405985,-0.6121811512708086,-8.317033596204332,19.513522088701393,63.12283555268464,144.80222162584576,11.693768136958974
0.4,35.857374527931,-86.12255342315335,9.430415567094881,-45.99995108575605,-37.87746671016475,3.8727801577630117,-1.965276376029682,22.694241286669417,-12.951491728538189,220.8473315170998,13.325018337794788
0.408,30.493083523610345,-67.7761510117711,13.154498585694265,-32.657132544601595,-38.18814330483381,8.102411431472655,3.8659073218452775,18.598410803191975,-50.840405157063834,252.7850743739617,-0.2887477760526754
0.416,17.47276533264476,-55.031621511011444,12.896269716267643,-5.544206773067754,-18.140548247843196,3.9432521633457505,-3.1905016261386643,6.221376660855099,-73.86395574347053,188.15424689686586,-19.080917584167032
0.424,11.641887919364846,-25.564976122040456,8.513305107696468,26.058045243767754,0.22581855063529585,-1.2906263983325958,-10.156503597380006,-2.815632095663741,-102.66974689630099,92.02598795046347,-26.20560418152751
0.432,1.484581947159698,-2.4253946887537103,3.3756474370573457,52.425653915715614,9.69115994042681,-1.6621013703105358,-5.59232998436039,-12.542262957677544,-106.89029695797795,35.86595343773554,-26.81812768878235
0.44,-10.56670156896922,18.437882072238214,-1.2766621473239748,57.76479473734575,15.753156148676956,-1.3338824195067738,-0.7481682926921593,-24.624761825859512,-98.1302175027994,5.761002816950973,-32.127070974201715
0.448,-4.701846943065618,66.87749324161351,-6.294374321885961,54.16266170714788,14.003511585775255,-2.69169827691685,-2.1459697747226607,-28.236927622388237,-127.28531476940236,-21.911287409080565,-31.385622078428394
0.456,4.775047173929923,125.5982804089847,-14.308165565573187,62.17637641993962,4.93628710706773,-3.3346002112748603,0.4853642175448291,-27.327851470915075,-175.87598299526016,-31.84025652559888,-18.745574126713247
0.464,-15.000459180100409,168.48133512684524,-23.76554923904918,72.67355778766826,2.3807481673762663,-4.247557885804652,7.782879090676641,-32.31992604485919,-188.6203815660379,-30.9035245298435,-9.57593748693406
0.472,-44.32930816418687,202.39324997999074,-26.45837204526662,82.42191588151364,8.357115410560532,-5.718936376864806,10.71630797530477,-32.73012832859355,-173.2285013087855,-59.49909806401771,-6.5826977094957515
0.48,-40.27257678935511,217.08873348097632,-19.601748155947377,104.87434067042587,10.941616288531147,-3.9011007960847106,10.480364401408368,-20.45669039835106,-154.0330964332793,-107.16989117926926,-2.041017873951161
0.488,-26.085676983908247,200.0745464017193,-13.541182894633986,123.3844109828129,11.706651707123832,-1.1570281514716834,10.084170068333078,-12.313814087386962,-114.93253011525353,-119.0544840419955,-8.096634829364078
0.496,-40.536133307151786,179.6345569005182,-16.557965476997545,116.28519688438584,21.265422272645388,-1.8727589812113132,7.989018211831116,-14.545733764177742,-64.14777938035449,-102.83915222398888,-32.44244179427716
