time,C3,C4,Cz,FC1,FC2,FC5,FC6,CP1,CP2,CP5,CP6
-0.2,91.23805159117427,-355.46023931948594,50.47619623668775,-26.801847902132536,-32.75126193639622,22.698191551578187,9.88677551177283,58.554176294685696,164.26435193792318,211.40085336596425,29.922413575554266
-0.192,97.68007457839677,-308.33016143996196,49.24717729295194,-21.979048221667618,-51.50230471031926,24.9808970084304,15.078892314722236,61.93469430932446,115.4770100018864,279.6815753198173,37.45378525041255
-0.184,91.27341573992932,-255.2513301595315,42.16203620903684,-23.823722639941728,-65.8910262672841,18.574441215137863,11.674559443590221,49.802420664088494,83.47283370914623,309.76445673899894,54.23170649299524
-0.176,71.8946956147586,-232.95751023459147,31.533385426200727,-45.18404255383179,-59.03884032059507,10.476334889344912,3.1610070570019753,32.10199508349112,59.302462451200384,307.57067274573905,45.02989315657911
-0.168,51.66227846212968,-213.18728307555992,24.514368797206494,-47.41659819834612,-34.42577768291427,8.62550644214667,0.2482685954132673,25.330355064117594,23.033498216930475,243.53724598351232,19.104419130046622
-0.16,40.356857136117554,-176.5005648365751,22.081867079459723,-27.767379664485098,-9.325122832663983,7.490702804415427,-2.6408672595111065,22.16529948402458,14.700487978621315,120.9313810787179,1.866673815071242
-0.152,30.22579067139065,-150.2618498893454,19.17676668566089,-21.532444579451855,8.736141215896984,4.184707181743789,-6.90528235847005,9.864913945009949,35.88733269174892,16.55931396029141,-8.093522996482678
-0.144,14.670563303881066,-132.53413647346375,11.186205517066268,-24.63182366499211,20.460595322957072,1.4650630364431472,-6.235941167203006,-8.235917768780682,30.067471190063706,-28.364167324880643,-16.460669046266307
-0.136,3.150855395534575,-81.33959893752251,-2.2267787510271555,-21.440188567047276,24.243154078616687,-1.3177676252332755,-3.255910714424198,-24.032137910369944,-6.533002831458043,-53.525243069656646,-19.277426184433295
-0.128,3.054573974223085,3.450300562380271,-13.060176371614537,-31.39435221255911,17.30849955245134,-0.8709574120896897,2.661085883303712,-30.84388010601796,-38.552036173309155,-78.5941743357753,-14.121119537688333
-0.12,2.704979131894334,75.47496935249252,-13.68057786893945,-52.14972225318982,4.331224091021992,4.521760404895143,13.621056034374812,-26.49095458159488,-65.48244791561069,-85.74189752040053,0.9777778711450502
-0.112,-10.277668862345529,117.65231904466275,-10.369097194562972,-47.32586984909949,-0.34145749564851946,5.622767841393207,18.4961634745137,-21.919919038355218,-85.29057133713577,-106.66776449592884,19.545070610597158
-0.104,-25.891025015158878,149.6735196039957,-12.156361738830702,-21.916427413607686,9.331737717411002,1.1698979810267507,14.718943507958805,-24.22898477639266,-70.88083790472884,-178.6975472491633,24.502162282574314
-0.096,-32.31061926968314,172.44306864411087,-16.20960803539972,-9.364869592131221,19.471194262633468,-0.7475259018744614,11.948802722927981,-22.598420819116868,-22.399819813725728,-240.35158143948718,15.404109853245105
-0.088,-36.660392354890035,171.077055758004,-18.383729860611258,-2.409398554296056,20.363225447921536,-3.578981805803469,6.224920933659325,-14.687957588232118,24.610350498579578,-228.20419926540765,7.148907389321108
-0.08,-37.30218435622593,154.59386169550748,-19.634095273657593,16.647485539239387,20.325018696620788,-9.139501612535277,-3.8434398807678822,-13.443247619971476,38.59842748590478,-191.7947236662687,-1.5280308877991446
-0.072,-24.09481408149328,138.3174366257662,-18.969958182720724,34.51989583242261,21.185908748683723,-8.968003806872636,-6.893748560033175,-15.983469421451582,16.79401311278267,-161.64368586047712,-16.841932996220788
-0.064,-16.74320845551003,117.43996503399634,-17.383524576264186,46.07285540552262,13.431866304242993,-8.968194643608879,-9.593892334966434,-9.710696893647492,-12.96891660721997,-77.12462097321104,-24.388762075075533
-0.056,-30.67346058445725,93.27524015881977,-17.48310550596613,60.23590456109068,-0.30849641140888173,-16.619332511928985,-19.675238789329867,-0.901266526068415,-26.04691526121219,43.06895689093362,-14.943129929832056
-0.048,-36.04447204970107,82.95035563401719,-14.459234342750086,63.67976094746547,-8.596897415591611,-16.39738970587026,-18.161585871982677,1.36010333576952,-28.44810263914469,95.83875372893378,-8.301439150499464
-0.04,-22.139526631647488,90.16709475707303,-7.410952284556471,48.12515620552943,-8.660426134067094,-4.486615922680569,-3.5126237069418242,1.7477125448659463,-31.561320463714157,77.74609947897788,-18.28264131036912
-0.032,-23.479732392824783,105.61512702728861,-7.395136105081806,37.671857103603834,-2.092462335884053,-3.0042432430432813,-2.7600621793302866,-0.9215510532219141,-36.57802265027843,44.61740595077342,-27.394254712241615
-0.024,-43.08152997233736,121.94356452844575,-15.64165443419883,40.82029443563264,10.075012134547018,-12.691592422149807,-13.416894890398048,-10.589566163459159,-45.107275018650924,-9.998483865218343,-24.387782977204772
-0.016,-51.75198036800344,124.34922894738638,-18.71838238446142,35.46162933786433,22.75726020979772,-12.671679575359315,-11.113247790789837,-15.76203815933593,-49.62887946768558,-77.80530232147169,-23.430571359627713
-0.008,-51.39908898433892,103.42311490222278,-14.308640160608064,21.717076187741725,29.8813911855081,-5.513472733314763,-1.4241478283734021,-11.496312326637117,-43.37718600125351,-111.25462933966448,-24.499743275038547
0.0,-56.0624322208128,83.97645208986802,-12.886990173019532,20.185820310666788,31.031844574462674,-4.835011434190818,1.7124078532829232,-11.015349972723953,-43.35290518965997,-120.94869451564826,-13.235892988762364
0.008,-63.24221456562669,97.27029476024708,-16.237925960096444,25.61084121555641,31.60988577719429,-5.00368070253657,5.928981155580045,-14.631715353625482,-58.992301316725765,-139.59929309394562,-3.141188195472535
0.016,-73.70644607873824,134.66387796050327,-18.388431700620025,25.63252887786485,35.62661000942352,-2.5027571993413122,10.380607453439088,-11.363852708200476,-71.89359813541282,-155.01368515941272,-11.38093851703889
0.024,-79.85936295492766,166.01192043319648,-18.264181314736096,28.492294125328197,39.21457183161021,-5.749528114106824,2.550215173727832,-7.711382530453349,-72.28134623206593,-166.2188623302095,-22.177972113969666
0.032,-65.7645653022168,180.33951296976858,-17.27869067734564,31.308670796214432,37.84234443189284,-8.979824053151297,-5.641297604284379,-11.596714408989563,-65.67075929985174,-187.24273304194259,-25.37922416460518
0.04,-49.52374825082293,182.40197737509757,-15.265841895641255,24.00900019969783,33.843834579965815,-2.372885898104872,3.346843342929458,-14.952932887754987,-55.08403296546153,-194.4809626731085,-28.35839469075503
0.048,-55.08401947197469,177.3419233309475,-12.858222365821085,24.714124139275615,29.52368275434464,1.9456609163451202,12.726001095392604,-15.37947455895757,-49.607457422506116,-177.24254484884923,-21.347603974985297
0.056,-59.26946243321741,171.57796349445178,-9.366680444565052,37.52966528438118,24.604851928829977,-3.3329876144015356,5.969025794087415,-15.337822707347156,-53.62055271578115,-170.57867101926658,-4.013782367071156
0.064,-43.086013781698234,168.78103003640854,-2.6072827717967577,30.3279942358568,20.243214402472372,-1.2603370234477669,4.1013958912059305,-7.654059847324089,-50.591148745179176,-177.46630475615132,-0.8563409024477443
0.072,-32.37836535775292,166.62724400746808,4.382257082539377,8.676666848855644,15.41499754977985,10.358522378432145,17.520649666694794,5.4310280508197355,-29.09083721073279,-163.18104345871805,-7.680113096324428
0.08,-33.184757465892545,162.22735940224175,6.461510522783348,7.794000853124158,8.505553517662776,12.649066346568135,21.001045556683884,12.302852551168902,1.5731250127450018,-131.95056301017445,-5.13881884799717
0.088,-19.74373699109095,152.76347414979006,5.7100443761741655,13.08982377912158,2.2818480433719506,8.664683346938839,11.852694174871353,16.68118836494366,22.805464876254913,-102.91091505214091,-7.430365582574002
0.096,-3.036266834222267,139.5313171309461,6.426407444438841,7.230590399122132,-3.176401543415639,12.002507863292617,12.864877740291663,22.49150871892433,16.980014457379966,-57.85544358758578,-18.36663004095013
0.104,-9.942029845209875,129.02351094913794,7.566040815783355,16.799916807000706,-9.356887133482049,11.779933328394613,14.796525169578029,20.82999110794464,-5.922205092755098,-2.4289574301541648,-14.124928229249528
0.112,-19.125041595853634,117.04469615222811,8.89047441165456,30.13002398998789,-9.864856895086898,2.613445954855379,1.7882536898793577,15.592313078563114,-10.269366771507507,8.64639491423285,-4.753425313867551
0.12,-6.3570009838655634,95.83512841043691,13.01440812823782,8.805361041328265,-1.6633984964090902,2.315426075790124,-5.384040642776877,17.30889097834343,6.444685382152577,-31.76249322390902,-14.966640584629072
0.128,2.983052679912199,80.0063638383334,15.52473736037511,-15.970534470126019,7.17242728960623,8.98158913510791,0.9490155123458813,16.402397182187546,12.021623774403812,-68.64597903932741,-28.49046267451544
0.136,-9.188176829281026,81.08523389537697,9.348658532614813,-8.233396711129448,13.491263055040122,4.370118196480597,-1.795278947018688,5.760227258089298,3.694807045740934,-84.34664672003409,-28.283955630914505
0.144,-15.430866370806859,74.14018105298577,2.4167567730000785,-3.333908378387623,18.634491065220388,-1.3537200967395262,-7.603092110661376,1.3766262863202399,1.947284129213545,-99.04920532922127,-25.36565591185771
0.152,-1.9409255606964142,42.19575284528149,6.724472994222778,-16.31622763167854,17.360161989287043,6.638762684862744,2.745932322264434,9.526103185253456,1.0610311089548106,-99.75128797963593,-20.771401777277326
0.16,5.810941741563211,14.070696393086916,13.010799610088778,-13.866027005080097,11.61430998692658,12.432323637955824,11.730750077860774,12.184690053561146,-12.447813267217924,-76.45555146017064,-10.699304846509703
0.168,0.5052999348504414,12.902957948797479,10.834562718949236,-2.703274094498749,11.181248893217669,8.209565631309657,7.843800121479269,4.857890248738257,-26.77658361975529,-66.89382325135797,-6.647116387462197
0.176,2.853992609082385,22.642430621759182,11.839752514591757,-7.807205528828221,12.038383620301936,10.617653426726257,10.941183284922726,5.386462152163582,-25.84364169705634,-85.08587495474795,-7.409284546170457
0.184,5.653884398510258,32.357591717657165,15.897780383678485,-8.929893392872737,8.282905816038756,14.935475528891933,17.03419816899104,11.594434834731343,-10.540914758892885,-95.14888971138606,-1.5962716537505455
0.192,-6.347636707801402,48.021663445102284,8.783154348418956,7.4403492294995806,7.4369451031145255,6.859337589785807,8.992344028532171,4.935072364628956,10.985949162226055,-90.55233405695667,1.5097542931848273
0.2,-3.026190243769356,55.43964478686802,9.173471044544128,15.688223656179341,6.919089252103734,6.734857598532597,8.420977907836981,-0.8940076190764338,26.779223798335348,-92.7006615965068,-4.840871783874214
0.208,24.922557480885473,40.400864142729255,29.12357682899274,8.212366903240316,-1.4436708111620318,23.50791151345768,25.70088805557997,11.79634783197129,20.259105120489668,-87.62828733151981,-5.284223021069617
0.216,25.46741215635235,25.488378630996458,26.563850805914264,3.965533945219274,-3.770207288878254,21.348696648822077,23.342828921627685,14.255120328105734,-7.255689676392836,-62.65051134057428,1.4888731034084002
0.224,-1.5189754552625816,26.700537760811024,-3.8597483518133346,5.34030025782826,5.834904745949674,-2.3995982121247286,-2.105759827885837,-7.2015272999592055,-29.36277377160823,-44.22861703934302,0.13778058555451939
0.232,3.782863022344671,24.04137482276457,-2.9201875983997665,4.243694420821533,4.645633263921351,-2.7933775442011526,-3.7369938783756163,-10.97523413162323,-34.02924928622267,-38.80474707564798,-2.175837803967336
0.24,27.620616194450275,13.741936764217373,26.5799071687481,4.8199130530490315,-9.736694069967514,18.211802954196294,19.2232056587333,11.34188326212334,-37.056798296637886,-24.082242128733593,8.501756698386759
0.248,21.329605103116844,15.98227389267688,26.792073409762814,11.091668797039537,-13.03514593246615,18.591850683948785,21.672389992169716,16.525654727885318,-43.80321204397042,-7.635499086720991,16.302667500722333
0.256,9.755709356619274,25.09539156928213,8.450811462777036,21.39620486186102,-4.366336466726823,2.715944272710048,1.648304677218081,1.41617047627745,-45.972570362286,-8.043382531310018,4.878337348334858
0.264,14.432200668556801,23.272962036609112,8.878180828406139,35.50320528549986,0.7901621535066746,-0.5014513666092282,-6.434856467180703,-3.3824054268943033,-46.44755470814167,-11.341435052244734,-10.133753000973897
0.272,9.415696035667954,13.266820663587412,11.497643141896464,43.223932524948744,2.512987275950425,4.97722144479599,2.959004833538745,-0.5357263455085924,-46.909185905808094,-4.017690865977154,-12.075995311259899
0.28,5.1441809276352535,-0.8379899180057949,6.185182527257776,30.336986496726432,2.7715678636009433,6.501061018862807,9.073655510289255,-2.4517570366346213,-46.24291879096028,2.333392405062897,-7.126107103065278
0.288,21.697740708873,-13.784043023351398,10.771569390286844,10.505798994453086,-1.2968578518575309,5.904605044898323,3.6586369468882722,-1.1340348576273611,-53.63441655215193,1.0366565184429235,-2.919451496293325
0.296,31.629476946210694,-10.744639535273953,17.574111016904816,12.48136749405263,-4.998936862622731,4.714126716071703,-2.694526476265365,4.92885458427859,-61.7648807952679,-0.663550085335176,0.8984826461460292
0.304,23.46573265330631,0.03453271876682458,13.674601365533647,33.91598138125039,-4.383861106437567,2.5262140989506237,-3.0078607034422085,6.10736202318904,-53.85484189727192,0.5399624049674898,2.5304467617693387
0.312,18.60589317512656,-3.976924205726791,9.538924455745217,45.33203204789901,-2.3442846267815782,0.5213592328651071,-3.463572707995893,1.0054402061910153,-46.03907649230701,4.277292092343449,0.26071986167986744
0.32,21.982892003471946,-15.743863110049707,12.221821399715994,30.79705569727297,-2.1289252867221173,2.0537219718189457,-3.139281081291281,-0.8712887544783561,-50.66996189124839,11.777017418112727,-3.6430324417829962
0.328,27.51574517169754,-20.06367812742021,18.823959806502145,3.4274045831164215,-5.04480008869623,9.829792686895813,5.137334361104807,7.235988137847508,-50.60417473838847,20.23417396070431,-5.732809859502005
0.336,23.934004313260036,-19.817983408330278,21.96774643063311,-12.860859385650969,-6.2273756466191985,13.652338714545849,10.26598574812724,12.339704778911289,-53.291604526571426,25.254566531688837,-3.837422630128234
0.344,5.245533341458065,-14.438102036654225,14.81307446354761,-14.963627769267632,-2.3347619744584933,6.92841679188491,4.777587474119275,2.6986255568912396,-66.5683698133218,28.723535596780952,-1.473868432183239
0.352,-2.6887708769064145,-6.2017925595795065,10.440899901756381,-18.630756053147724,-1.7604706368859349,5.504909629335049,5.427414298544951,-2.6403642096740936,-56.937482492999294,29.90511675104762,-2.4608627232576654
0.36,4.9203794359989175,-8.889025066278395,18.122945154042323,-20.6659446253183,-4.079885031579664,11.573011721505967,11.41960435058462,7.384925768737137,-32.788120645077335,18.02584715566042,-0.7329976622283764
0.368,-6.779988623963228,-17.386704275791438,16.249669849833317,-10.134212492275005,3.648249042462033,5.36427936353612,3.1134950211694514,9.563254402848152,-43.25756465728055,-6.3888564590316825,5.430832290018725
0.376,-25.1700546452401,-16.347313736130634,-2.0424044875108223,-7.84641808953358,15.612361772349335,-6.571008885946895,-8.708168031287329,-1.359798131130291,-60.0519410225353,-22.058285469207753,1.52803477045999
0.384,-14.284029068921681,-11.826585276660936,-10.82009455757499,-29.46412940922026,17.013585083153934,-3.2391237161334256,-4.154714851568658,-3.3597768475102128,-33.19184171407764,-21.845779708778146,-15.576734365763592
0.392,1.782991231204897,-14.04007573395312,-1.1409259814937034,-46.88417300617838,12.609316790366591,7.9117531951814355,7.42997789222185,5.604276527033836,-3.5200830585468297,-25.097485841489327,-22.211057871204325
0.4,-0.411856596464711,-21.474721173283857,7.668388381918812,-40.56070421648729,10.105064632611988,11.362849337213458,12.784440469319525,11.003249557284299,-11.003983247307815,-36.6791454000873,-6.709262641785342
0.408,-7.743574435274928,-27.961252237175046,-2.7157568197513293,-29.720425600009566,11.03577454873992,3.470495528994067,6.917513042440472,3.808524293032072,-20.143480190930646,-38.51286380508009,5.4084091110207195
0.416,-21.31999492363137,-23.870221758121794,-23.54325498718904,-31.015537035342525,18.126173697822882,-9.943309543633715,-7.21304627379242,-12.386684172637143,-9.060530707649354,-31.92786554154729,-4.362905280663019
0.424,-26.55345055088578,-14.335953270564987,-18.451059432667723,-40.949909132694415,19.223781549967374,-7.620637467973494,-5.7552609384330164,-11.41767555824247,1.5856875931617282,-37.66427183618848,-9.519181108223286
0.432,-2.8035057640645333,-17.00279050087984,12.472556133146174,-42.650488546965526,4.104195716003981,10.88407968434918,13.373952288173381,13.17924263111947,5.908123908982404,-50.40057553549669,12.267328085146303
0.44,7.298921782219463,-20.613963199808676,17.1681130129689,-19.10774715527924,-5.276855644453207,10.466063255424634,12.96675853511418,19.690545694443966,14.420055101297407,-44.0076536729693,30.107068136591035
0.448,-15.46002923724203,-5.527217322233156,-6.722194560871828,10.82420013679968,1.891293893378953,-7.609846264620817,-5.44967038617696,-1.4296555336129744,29.178854430052173,-22.661546064026595,17.965464726606076
0.456,-15.765678306847667,9.641008360671067,-10.80164228071906,14.904687308127565,1.5914176422313755,-8.331135718545312,-5.68046438466018,-8.292796292857503,42.06513560645351,-13.732261816692706,7.220735441252109
0.464,1.2928990015996147,10.16276977861016,-4.20051813501017,10.128723178018442,-8.297506715510218,-2.840743154291033,0.5483901797453786,-1.883553978106399,50.25545800766193,-11.498566300938222,17.96699524070415
0.472,-11.929721557047463,13.800258527694204,-15.513790765839229,20.171930379405666,-7.872867466265881,-11.285704007684286,-7.233052737612724,-9.854904496258936,70.79657939636772,11.000388972463949,15.878431818125778
0.48,-18.161162110148645,19.562286583367417,-17.159941100474416,20.164108069534983,-5.916101584867582,-9.155386942652862,-5.605790937698148,-10.179093223916626,105.00738539143153,44.26394573409583,-8.388454611211893
0.488,6.418014508957575,13.656640593853982,-2.5604263639970033,7.129979118262893,-14.605534555569298,3.9609181119348293,5.3015340764131444,10.66602650599976,116.64819107644337,62.735089108592945,-13.598186580439721
0.496,4.6050731298434835,12.90789816816875,-7.1736756857933655,21.747419779277244,-19.87472794374048,-4.002552578390386,-4.305890289115449,18.379901522029247,101.00673220060177,75.21172825221026,6.168229928323134
