time,C3,C4,Cz,FC1,FC2,FC5,FC6,CP1,CP2,CP5,CP6
-0.2,-28.893921948434826,98.68614178547074,-11.292533661856119,14.702353763712473,7.672514630444125,-6.474612992451852,-5.981161071382164,-11.496879249247662,-35.27909997448535,-17.758732130409943,-21.67810472277464
-0.192,-8.836619328021836,99.12181153116735,-3.840510870234654,23.054985482933,-0.14581824638789392,-2.1144673131263954,-3.2972155933629277,-4.861785641903175,-21.674872000007003,-16.51134210530268,-18.327299091141068
-0.184,0.3329955555400973,98.37445627184442,-5.072870077422606,18.98358668236963,-0.6936938488664274,0.12304290420863535,-1.022912016073644,-4.16456312106592,-21.389664808055972,-16.615447654972407,-23.027361586778966
-0.176,0.15267118878132832,89.9880935028955,-4.655256824119145,15.05835274753979,-1.8088557274454065,1.8753463579301202,3.0134299927926365,-0.9246062792399373,-36.83758324288286,-18.113014527548877,-13.371219482905058
-0.168,-11.864765261593032,82.39171095702115,-6.456204140153104,24.363754469569354,-4.12115275558979,-2.3150372906145447,2.1021596635192363,-1.1768476942456547,-48.79304497086695,-20.80984216288425,9.810955640361852
-0.16,-20.78718615011002,78.19407969256808,-15.745793511534101,21.799233551856226,-1.698783044621269,-9.303609426628192,-4.225852875261953,-10.479590232444414,-44.21124170843329,-19.527309772340377,12.249489047978631
-0.152,-2.419359515626772,67.01609498377955,-12.928044759221775,8.973533978419306,-3.1812521998665093,-6.701205300556575,-5.539849711046776,-11.05013731245992,-28.372691417830566,-11.663475627317506,-0.8843876175169237
-0.144,14.2775914217149,54.52040412722273,0.8693318796401056,15.574847985556207,-10.45738605061616,0.5004677683513379,0.4448108471347147,-3.848509684640936,-12.992889901766032,-7.261098436211504,3.4279759109056833
-0.136,-1.3107919655631952,53.02902048704151,-3.4344630901689523,28.318551201209882,-8.526241839241061,-2.5452146822388926,1.7236364624078695,-10.306163327965386,-4.2332382102283015,-13.312698269495817,12.316750150180846
-0.128,-9.129615400065195,51.198477316832644,-15.083881413614812,25.371552962349938,-1.2006862987800495,-9.687538847309325,-6.4827536573310045,-17.38634384390273,-4.004233924312563,-18.30721529516463,4.415458973350528
-0.12,9.212733574826494,35.180405960494156,-2.866201603456466,25.85105500934624,-5.071517226856257,-5.286675164860153,-7.650044188441783,-3.7247091714199,-9.5756110121844,-9.849085351009924,3.5133918829024635
-0.112,10.477649572560512,12.127103258259897,16.086018513869057,36.796202400956886,-12.793886759006744,6.724398362960429,8.326713626863256,11.065163047862582,-9.934322927377197,8.0477878246731,19.212589717925148
-0.104,0.792158865110571,-10.593245723185813,15.320777192468011,35.378703070092804,-11.76340155157526,10.35578327883247,17.46003198024909,9.571476152614242,0.40097605329613917,24.26485083226604,21.54985505677963
-0.096,13.577412369439097,-32.76784553020326,6.477309522197041,19.816422220615237,-7.350311402267169,2.385270618725857,2.0746490831743363,4.398387692898048,7.311355998524996,33.25356432444877,6.702458623960812
-0.088,14.980092091305512,-48.747865420855824,0.7564026187933758,5.937836772720874,-2.4498597509119753,-3.529432842062881,-8.296379093280922,1.112305157763241,0.1298847122090628,37.62450398804265,-0.7238983896435705
-0.08,-11.002497443183064,-56.96354619103323,-3.1800289084331985,-5.644361289715202,3.8809293169749752,2.5166314078218064,7.663094461533445,-1.0689977258244112,-3.6129762873703424,42.23373936884282,-0.16485228082045347
-0.072,-12.92504405048086,-63.3968488465928,0.6372097666433938,-16.534034375492084,4.339398386963918,9.47147120769349,17.35908454144084,4.277473775157834,11.32482285134063,45.78209250529578,-4.274519949339527
-0.064,10.932006122960535,-66.76379710669053,6.616683356730331,-16.442968358049395,0.5646018149766214,3.5118570667771545,-0.8193854622283018,9.921438131223757,24.861756874948387,44.57081714837976,-9.886138252546791
-0.056,15.16015496557371,-66.18601679650061,2.9104468039213667,-6.113027014154752,2.594504529461174,-5.3490337360527676,-15.75312006363944,7.1814490679051906,17.977705298108784,38.586792282359916,-11.217439883863609
-0.048,7.751339814006221,-70.77473922206858,0.3204772983975896,-8.584451885826638,5.792405821381479,-0.9687522339033778,-5.265826734269487,6.838903333615883,9.024840889227661,28.265379739114348,-7.445991682150897
-0.04,9.992060560210815,-78.57777359343679,6.80298610953718,-32.36887564352002,2.789674133695888,8.243369661498695,8.790756573171823,11.181116015100047,15.099937060524939,16.08893278173028,1.78934128946922
-0.032,8.833395754746801,-72.60311802461885,9.752025343548837,-48.76811078591771,0.6503940926921566,7.102305380217034,6.255847572047229,10.025111686529094,22.5410976390854,3.9821511166481565,8.433474368842756
-0.024,3.938845394611703,-53.50204636748914,6.756153030623951,-41.340064296644044,3.916849766658152,1.2000186848211924,-2.728756062898625,6.980064890810683,25.70169731343942,-14.76261095399748,5.737014801629584
-0.016,0.8525788955784394,-45.85440963899144,4.335234237341905,-37.54834840691504,8.305510070688838,-0.4898976666371919,-4.576694781992445,3.9845545501996105,38.68358176222946,-39.71782345200026,2.809086730045506
-0.008,-7.698828218546969,-62.439942185688615,1.690890934198938,-50.99379664149098,13.388917331923869,-0.9107694115909032,-2.643384655869779,-3.809686127945647,54.513449825688156,-53.05401894648433,2.6944836833730195
0.0,-6.395056865340969,-90.65660522724232,5.223842252303849,-55.64293360152198,17.367146806170783,1.6662842081948281,-0.9308788372552357,-2.238624089374509,53.3403641071778,-45.43689722666172,-3.6611129382241856
0.008,14.126553144752782,-116.16696211022006,16.830876211969834,-49.80398951173994,13.729398758624878,9.88763201257801,4.3540925756266375,14.729972496670896,44.010041679700606,-26.91018136140095,-6.6229812669952155
0.016,23.36106777257416,-129.54210834982254,17.417526804094727,-61.47990994186655,5.42396141349599,12.723353658381924,9.31308711065921,20.945469414710068,46.973745397118535,-9.070370465546748,6.59388922048031
0.024,13.820776778623948,-121.79380930206997,4.902912154742539,-75.04602056785063,0.8018508258947801,6.654845415176014,7.173926577327074,11.920405309286982,66.8945268471213,3.712468609782164,17.124501860112762
0.032,15.236124753332687,-111.7555037811895,3.8495686211963607,-51.44105130172137,-1.4372644243689703,4.921500912176713,3.891743306701244,16.474720900026824,103.4857119708234,14.521659352070676,11.106874817509617
0.04,31.52275181592584,-141.80664997146337,18.63840068536498,-15.132856921172744,-3.7031867722239267,11.115847998456717,5.87519490302286,34.99979899654985,138.63548561395297,26.96231228127145,6.179085929242807
0.048,44.90970982153357,-203.32330519498518,33.325173878517305,-12.333435943197095,-2.5533397273740883,18.221906475554157,10.481180983432006,44.909490746528576,131.63715282000024,42.445536506436355,6.791773851844427
0.056,47.822361069650945,-235.06195917101863,41.447409965151586,-15.911520191593295,-0.4880458585224419,22.226513779012063,12.811295888495568,46.877076433035135,83.41595275658652,73.42831794587389,1.0731106443535532
0.064,37.89434928203113,-228.96791918665625,37.249185132597155,12.53389888235764,-3.2092963387947036,17.07610527166998,7.547020962337074,45.11512151395405,51.989416647174316,126.85425465199081,-1.9057229639768862
0.072,28.754322693481562,-234.1586591788312,20.112384155190544,32.62915249427349,-10.343788967911713,6.657231937132593,0.7285085247641718,34.39139037363704,60.87927759388161,186.7232845448017,5.155066933843165
0.08,41.00373797644438,-248.98800226975507,10.974590564994523,6.997461366384767,-23.989306429708506,9.106154042953374,8.379966503287804,29.04885078826134,63.383755395160605,253.5574253412496,9.333974584684798
0.088,62.078498980590055,-233.35242011527268,19.00538828759475,-24.78939001747572,-44.38825078394743,23.031701225324223,25.53124390702449,42.004978173755305,23.045369912100192,332.660813808366,10.749116907586
0.096,65.2074748468327,-196.68991698051576,23.09664227373156,-28.95283125119524,-55.072696415932455,28.97175270388829,33.735989929469106,50.63061749845146,-37.40945675944784,370.3870432764819,15.76770715904093
0.104,49.06095175789864,-163.38012557982455,14.14881854076788,-20.439933022750285,-42.484159653027376,24.012561722843433,31.098548404714787,35.14493722981787,-82.30258130285375,318.9326929525233,11.111393171818124
0.112,26.563630974639764,-127.08411380420772,7.677355010784426,-6.557967743186847,-18.334661867056536,15.682791348314083,20.5287482798248,12.360288739630798,-106.95551266330287,225.2848919669043,-8.176965182312937
0.12,10.621222931973412,-99.32455633409307,8.637661571560812,12.58862661171075,1.2484535327423634,9.610664689105125,9.579211166202398,-0.14638040306072436,-118.58814587196753,148.4373314107912,-26.221769543518768
0.128,5.537304698773272,-93.00141376221983,6.1589456654433805,24.49956434718282,15.086746481895233,12.38050573344644,15.805250443373568,-9.992548221136596,-116.75209709766361,85.48542009890073,-36.73481613282114
0.136,-1.6017522639587591,-69.05609730246711,-4.736657791396566,33.7135498774406,23.593134537272835,14.643904899818253,26.19244865819892,-24.485433325969026,-118.37409774903597,38.625486724989415,-42.55424481831731
0.144,-13.199212864630075,-8.604482178000175,-19.737053741270127,47.824833367660624,21.878176235108903,3.6450154632449183,15.813909277972021,-35.835146830533255,-149.12619256038565,33.62337606454479,-39.21242071454072
0.152,-15.356830691730176,43.09885933264291,-32.20956129490814,53.059875649222676,11.429360919400585,-2.8927028870572444,11.91555763625615,-39.565170194584795,-185.66636546287123,53.98662573892771,-26.01621639161702
0.16,-15.349888898545535,68.1824577531795,-35.310432643567616,54.31415418415554,2.4929412643200357,8.657645586310602,37.03473310608115,-39.69161428040436,-180.23760835693943,51.63759138601954,-12.179285696701621
0.168,-25.492752800377446,90.1984555961526,-26.59102538065686,71.89954362403812,1.7812301005563218,15.896129169519357,49.594959727646454,-35.56721099368695,-143.53833411683777,19.534233598320345,-5.875537483233226
0.176,-34.52922422671652,107.12887269158998,-15.426151420257828,93.43643410455125,5.927395643170762,7.2749708318349615,29.839642293799056,-27.798998268116165,-115.68444722148057,-8.985849414987358,-7.923534992631703
0.184,-39.920407566590676,117.9052582331002,-14.971860543516668,105.17053774179888,10.079690826301771,-1.2448362612908446,13.603870454975983,-24.75662803424759,-93.42887298998939,-22.173082093812045,-14.056884521354508
0.192,-45.94594689537717,134.7233122118887,-21.095322598115672,121.31185294532858,12.119516011683146,-3.8372533027321287,11.122149760227856,-24.037160958185034,-63.60272098629003,-20.70517323667102,-23.442117483077684
0.2,-38.03671542512713,127.77433247670848,-19.77319151694712,135.75564624228775,6.607387079792137,-4.272232239873153,6.488426667812265,-15.017925815098868,-38.135961583643876,31.894089245924143,-36.30711986415475
0.208,-23.450181088031208,74.86641586123935,-15.261807568519684,128.30997097348805,-6.750385466327867,-3.096629055323857,3.3211380287039094,-4.521350842733884,-21.79724106450702,143.974490917226,-42.58844402713544
0.216,-30.13602191068804,24.313030319898,-19.38827442710946,114.56440318078177,-14.670261168191924,-5.74420657299221,2.2161944821462596,-3.5586516775820054,-20.000695607165873,234.96539150219,-36.80787078944488
0.224,-43.68305061185812,12.039552234995458,-26.003982622856693,112.06698031676001,-11.804044808673517,-11.822185290991953,-3.8780910923854277,-3.925096948674602,-45.226023560359394,254.99126560582764,-32.024469630969485
0.232,-39.86680676704938,17.254275924952587,-26.960176097202552,111.56690971024872,-9.74986291788801,-13.576339085670787,-8.846575949916524,1.8139914693001782,-65.63719037432395,249.79662214712184,-34.4823035630248
0.24,-35.364237976290276,28.5943333592807,-26.557757486947686,115.35748962720174,-10.260957254366707,-14.641932361050607,-12.437857752027407,6.756114279954456,-37.396230061813476,234.19847613321738,-36.38581223715259
0.248,-35.701055268137864,40.0759447179935,-25.861033893209214,124.4985989991134,-3.682322458664374,-16.574627566390944,-16.622755233291784,6.60298609197639,7.25142011722536,177.85110937916573,-39.64009642992647
0.256,-29.201157226760056,27.16722730854937,-25.07016845794203,118.1772508022306,6.700010338936377,-11.402362025679619,-9.167965827782862,0.96586941981124,11.30431069605377,118.06204852878325,-44.8495735667557
0.264,-35.57193944192529,0.9820054655609008,-31.34329625115894,105.1386975799176,13.025791109420659,-7.71433472652075,2.555716789197227,-10.537856216155468,-12.256301764006956,105.19295852167102,-40.586494790501725
0.272,-55.82686230773026,-3.8457915140259504,-40.300776841624824,108.69902662913985,17.05098504745397,-15.640895998695793,-3.0790094099705723,-18.993136114770508,-23.98224754701226,109.08429965964983,-32.36977032291379
0.28,-50.16526779506777,3.835043029638876,-38.11742941174393,106.18677643210545,17.158560079403784,-19.47620822275165,-12.655555411229752,-16.053245815888317,-23.112230658013868,97.30666425508367,-33.56052724670223
0.288,-28.173620357582855,9.441662287451582,-28.071788364276408,89.8380857921069,11.37373778320102,-13.008747750737298,-9.218020622700022,-8.613732518012421,-20.225810133599275,80.22381671868582,-31.976214711475357
0.296,-32.36521698598749,30.28624643916165,-24.460578222307685,98.54480507191413,9.568423631190168,-14.754267280070557,-11.327322134330919,-6.386845695211631,-14.866296261539073,52.387125153267824,-19.95737970557457
0.304,-43.23295524935799,55.903264655286726,-28.80661696687566,117.14951060473852,14.416192325358095,-22.992331218601496,-21.556316513475927,-10.619403458143568,-12.727452861705046,15.9081172182008,-15.625373421836395
0.312,-31.86384725681973,52.80401741545068,-31.883492869648602,96.67059350582022,14.183375002191996,-19.80511924237416,-16.58404412506046,-17.268732721814832,-16.59335955370151,5.512908208390747,-18.869010294907618
0.32,-23.709436844865852,36.70587588751877,-28.32169988301836,68.12344404678817,8.162240791127507,-12.559828801702661,-5.429719342902953,-18.592283402603794,-12.042466234253073,16.66527457095369,-12.669752166522022
0.328,-26.374694762729177,39.10208245065321,-21.216976734853144,74.7808380270688,5.753464213278178,-12.84602999751918,-7.994098268593266,-11.569387538332714,7.46559726327307,13.198136449637834,-7.026424641088381
0.336,-18.67464668116334,44.6026919641079,-16.374756959454047,83.80460551536403,6.512102637659412,-11.092861443579887,-9.518583538290953,-4.9228549066572,25.39642866800394,1.3932664094272047,-14.121008255450437
0.344,-15.856850835050555,36.56316425462175,-15.404251047438756,73.90858625066592,8.328683320130224,-6.988726470348369,-4.085862888339636,-4.011891077329232,35.80634966267642,-4.825749178043098,-18.715438316628422
0.352,-23.98287547566917,28.428702762585033,-14.782883049457409,67.91931968990913,11.718612926600072,-10.354010392120598,-10.011920389316908,0.4104791114463079,55.16565767813547,-15.042299994170845,-16.58913019310557
0.36,-7.572562887793796,15.114866386181054,-8.110298279828134,59.01674844463238,8.116215427151133,-10.195197815953032,-17.444881238909655,15.075938341569648,78.4501869649883,-6.041251576145263,-20.10740774298267
0.368,20.59063714044481,-18.70746793935731,3.4666104461267735,37.636256354871904,-4.363970902801657,0.7080330461091771,-8.069835025203982,27.724388251954885,78.95535916625602,48.16900139902819,-21.90978579219088
0.376,13.559037582510598,-52.67725863239973,4.35991586542561,26.89954089808541,-9.420195756404988,3.292062432339211,-0.8273509589069394,23.20761700037684,61.809471590665595,103.69946381925973,-15.320166820943061
0.384,-1.2903657172758678,-67.80543875618456,-7.316784331526583,20.697953373724754,-3.5621917848199733,-3.5281689050678624,-5.292899555076498,11.290884984811612,49.09685219806708,111.98542990013442,-14.608108464620836
0.392,18.793425598198198,-74.88779008860065,-4.324213047943093,-4.019011863848882,-3.207142504143616,3.227218187801163,1.104360803787681,13.962033344660865,35.32401992150378,87.01738193651043,-16.79721257997089
0.4,35.29694455241164,-66.43331829462163,19.341219565737326,-25.13795846625649,-8.924294580358405,17.19702367380652,14.272380601714971,24.871687419962882,21.940959123143166,48.36341145769986,-6.625342200701129
0.408,17.412899654603155,-28.61797136633817,30.09599852226938,-28.787362093930156,-6.574820132305003,15.964737912197029,11.814242858879863,18.930717208168687,29.74520272240388,-2.7186371433359717,1.2637980194772533
0.416,3.325425515532384,2.655050574683775,17.82355993811323,-44.00579222413296,1.096971799374913,8.355607563282176,5.137372587450203,-1.4221415516067308,41.57206073191676,-42.35194430799949,-5.8125581530758454
0.424,9.079146722343186,-9.401446388433822,8.219207847412013,-67.08842649889783,2.2850627340332044,6.576436900636135,5.69994520718546,-12.78966028721546,25.893111759333582,-47.13127621871949,-3.9771700923134623
0.432,13.675752337939802,-42.99269144926205,7.818538401351636,-67.61394376699913,-1.9155572972014134,2.1120118960057703,0.3195274899655432,-9.85853740285962,2.53049256553387,-32.650212253222,16.71459971903501
0.44,20.78388328625884,-67.6525619783709,6.80318087809428,-63.63918776291446,-5.2249963210921795,-0.6184781283988927,-3.5441748269481965,-3.41955211511609,-4.190322270817534,-22.749297497821185,30.08249805312017
0.448,29.973546940775922,-77.34278830420243,10.262492544501267,-77.34448146045126,-5.874810443015241,8.216269230098462,8.313626438062904,0.9178270277611491,-12.18508973494256,-22.022110356087346,26.924945934280466
0.456,22.43215856695459,-62.839300091734025,18.290475098177406,-82.2243267648851,-4.5388074179173055,13.108814952948757,13.905165352584238,4.283930660858087,-26.11503128926327,-30.21818265341007,25.100806766081085
0.464,16.00744339054653,-30.66763806822587,19.683595272646812,-74.06136643599895,-5.085854643681322,5.491222489748239,0.3824009463156432,8.328453557260673,-26.515082810533467,-46.3865988998276,29.097109439387893
0.472,34.44691433528329,-16.795779976511927,20.47601572611704,-85.7880958253449,-9.8502653341033,4.847811924411237,-4.427920382678737,11.965712203092313,-21.289164191874796,-62.26827638466408,30.79843296118312
0.48,51.17237019726153,-32.197173329464476,32.343351118637564,-105.82680077326371,-14.21506583216726,18.191449150958082,12.404969690347999,14.619188744306626,-24.572819123837572,-69.43204665421686,32.73413803645844
0.488,47.49844975347737,-52.3426805944107,44.37740459538569,-103.9732646528446,-16.093277663216263,28.959870629895757,28.943337920128766,19.45407703705074,-22.38234811935721,-66.16652039460462,40.505952871979325
0.496,47.88116631244305,-63.384036772661915,41.60703853641476,-102.92617547105893,-19.29664877635215,27.580298206312538,28.863065661673435,23.883408778844657,-13.003148219421895,-58.4884281753142,50.986310276545076
