time,C3,C4,Cz,FC1,FC2,FC5,FC6,CP1,CP2,CP5,CP6
-0.2,6.1447045220840355,-29.679777952072033,1.5265219429791599,104.01078823167204,-20.62182044090776,0.42837299522832234,1.7088622872957533,26.317833113197093,-2.2747978633330486,173.1057676128953,-1.5209084587390338
-0.192,3.0443685756912253,-34.97630826339674,2.345715951261682,77.6198876033213,-23.280706526103764,8.596748201902615,16.947463936960766,25.342440375433924,-30.225065229538384,183.99166608684013,5.348845418932059
-0.184,-11.131308564913201,-23.456283711049686,0.20813505367668167,63.21979992554131,-11.562766462918665,7.86457975351349,17.847729296396114,19.677473792981488,-33.31440607915435,121.12995875146373,5.911254201925253
-0.176,-19.575726900176935,-13.032064010979798,-1.2896442121179088,56.190629540429036,4.361824978601411,-5.006354679058992,-6.446416603945977,10.84642376605963,-6.535581735658947,53.55302555570805,-9.057322374599378
-0.168,-23.598565726475993,-3.6389388492157044,-0.932442103321746,27.30296667246369,12.34019692796623,-6.765216449826835,-13.056341455824723,3.978862438031423,11.617403784994112,29.51922324737475,-27.46099190235003
-0.16,-16.84989631919978,2.977028053930197,0.6997970390611697,3.9075172873553234,11.167343912731857,2.159456640755251,0.35063334218856446,2.723352478316014,12.9092675419238,16.862790728077467,-30.49611599509817
-0.152,-2.7461407257793695,-8.158812056091497,-1.7427434032622324,24.345170480609802,8.188705221642216,1.0464776808437304,0.8008914795164863,-0.0938355921147664,11.275177622394278,2.1446724878797325,-18.755411033437472
-0.144,-2.564195557092873,-34.171825334022245,-8.052311640269632,51.75308045776178,7.634572167900528,-6.609881644604912,-5.942353188034348,-6.35777906664515,-4.521117567748956,9.821121270026499,-3.712632701936105
-0.136,-7.661406057977365,-52.27707113243378,-9.434749843734087,44.52122104948475,7.3762298597819065,-5.213441264658663,-1.026000122420978,-6.0059996494610015,-34.790965580107596,25.484287920145682,5.063227154432863
-0.128,-3.9170198923525748,-44.424347894880825,-5.63511243763113,27.84797857350286,7.119215121724139,-0.7469885054400208,3.3088943728645734,-0.9347749282617319,-47.61828910200377,16.373991696784866,4.076634491553373
-0.12,-4.957797880716261,-11.52796693970945,-3.862311324572919,20.04793532355397,7.630365651179177,-2.382102988698858,-1.3666562543651601,-2.098861866137526,-36.03573563339577,-11.038391046385179,0.31478337251340716
-0.112,-6.032997524768361,24.032951647215782,-3.6898857579977165,4.275124930530953,5.629703851513066,-2.518562811217333,-1.9814468989592833,-5.890612536817332,-24.71406222237814,-34.3289613965835,-0.2211613074369191
-0.104,1.6570003717108979,41.0644353075369,-3.610848898577383,-5.990841322533829,2.752268990196309,0.6807262818236227,2.350890755928986,-7.797628998698636,-18.46367033132752,-45.78077108097045,-1.7951444385476878
-0.096,-3.0633407979621325,40.29344251430554,-5.639965513388024,8.808062236736216,5.18118466759465,-1.027316322259608,1.6487136079672184,-13.12557723557734,-10.908086807533433,-47.76022043759267,-4.542244101960028
-0.088,-10.333949894912468,28.5141415805936,-5.420257674824283,19.53449683225784,7.304178000704413,-2.745285437636913,0.7912478738949001,-15.362765062565556,-10.854948412659386,-45.75256487538572,-1.3645798256925057
-0.08,8.816523075865772,13.642993165045931,0.18821589709741104,4.4029703726567115,0.35192007337203873,2.333585646280443,4.917104003884681,-5.609609117406808,-14.524525494699771,-41.26786039463003,7.207065204130663
-0.072,22.846244708796018,14.541061758005359,3.7353275697608086,-11.84053648252402,-7.1793373316780755,2.8093280396507243,2.0214308710561513,2.3482297901359366,-5.298464361412779,-36.78311245497442,14.164020705278006
-0.064,4.769041608964271,33.040107900378146,1.075796794587852,-17.692731727297577,-5.371114927031835,-6.718515763216588,-11.405507171448935,-3.2795652660629293,9.698115458174458,-39.52459696687413,14.879143071041137
-0.056,-4.023182328573921,41.21168674497329,-2.0707585032442677,-34.54176766591508,-2.422888685715271,-9.477879865016757,-15.047352077925371,-9.13657629833151,17.938971526758557,-43.01959851631075,9.12630674651758
-0.048,12.113548022489914,27.339927288719238,-1.1325927448601678,-64.47913932337725,-5.460609115559779,1.9706935564216577,0.7726644431351849,-4.366811188551902,26.311261293725337,-38.17561642214922,4.247074123052219
-0.04,15.893875468722014,10.445703488472963,3.219790372176253,-80.93759589214949,-6.2712647942676485,10.794524958697252,13.623457629877578,1.793301888002206,32.546724475106515,-38.92035617335991,6.348986598987333
-0.032,5.215248810277341,0.6888626775272674,7.209380667261538,-74.22728946778328,-0.6572975423622521,6.227071416954055,5.524672238507272,1.0230026502119034,27.315090518613076,-49.9093885960012,7.563000865924145
-0.024,6.062056829081348,-7.195215958746174,7.612951531878141,-65.33872137592292,2.926286885159248,-0.650687076936564,-7.659354929483952,-1.488550987145066,24.282981538118857,-49.98711016274677,2.046823196855265
-0.016,12.329486150176109,-10.327056712819365,6.829088636472092,-66.59738024168803,0.41551418162632303,0.2740034015782328,-6.820227826685895,-0.781077565245105,32.865769428850484,-39.603161352270334,-0.06134912994050512
-0.008,9.391561777234621,-4.594158337439026,7.962790877133744,-63.55026890163921,-2.8046957386975717,3.1528381524556996,-0.11239630253209965,-2.5527452639293187,37.73460080991925,-36.69299133627961,5.235471081984321
0.0,8.171868249807643,-0.3325149738478391,9.90011172445497,-52.59135711704688,-4.747008926450887,1.5238260824669454,-1.7506033078475083,-9.168149669417943,35.584352422373236,-33.441804144682365,7.455225036610153
0.008,20.75948867585431,-8.049807407043886,11.91870163255707,-52.773637713110865,-7.8316675624836565,-1.1841451080451944,-9.300307125317124,-10.168058513929315,36.44533013536704,-23.029855444353,5.101360630582004
0.016,33.431526448878365,-21.934047200184935,12.107345125663764,-62.47291765229674,-8.98123582995743,-2.697617248176643,-15.160158535250174,-3.668360071500927,34.748115027480914,-20.875774149547283,5.5225123320211
0.024,28.113085595542117,-33.287916663458084,8.523372428917678,-59.17278671261207,-5.1048671289125975,-4.191339625088,-15.618117783800917,-1.4738064124046109,27.599829005454534,-25.12377131957979,8.346439153263479
0.032,19.79886383296087,-45.0361332464068,8.762788485243048,-48.4126776107363,-3.4750613633970118,-1.5228314016218425,-8.466948943037131,-0.9626548124144119,27.522115812876116,-21.802760663730826,12.61127806768518
0.04,30.410997368407028,-55.890919738771586,17.93310603521071,-53.34344237864948,-8.527747933457421,6.567387109392648,1.0306881377222694,7.474145501208478,36.24210331357781,-19.81311340348984,17.558106731822914
0.048,38.442663062987705,-53.66925322056651,23.168060495855755,-67.16282619691805,-9.584909156901471,10.069929989910216,2.3956384103289574,11.437653363260115,45.249850239237006,-27.232110039942835,13.278615334375939
0.056,21.6311880478574,-43.857983396422405,16.191654818176175,-70.30250393514027,-1.3078359325847448,4.3168528342116534,-4.3971403188346025,3.1335129292591724,51.74699775815414,-33.33195605459032,1.4789192006149727
0.064,10.57721890194396,-50.79342887404264,12.043249603318742,-66.24266119906852,3.3670093148097773,0.11163597663375828,-8.809643225539373,3.9659066642641827,51.13396945163483,-35.928911570981775,3.1036020090723486
0.072,26.976765081226414,-75.38707410112941,22.01003027082695,-62.48198476273016,-2.1418617869213077,5.52966122485732,-4.402389518971682,20.319909905778918,43.732027659985405,-38.92019217836659,18.48224211381044
0.08,38.897291706038196,-91.00610180275864,32.359178001276895,-59.80891070782321,-6.944434135376541,13.746193907076323,5.34383834355859,25.855945898486663,45.63736626311636,-33.760602953212974,22.60706100278224
0.088,27.299005688079426,-84.50860808250103,27.69588770935096,-71.05174493821396,-5.268431312602894,15.265551025833293,11.327685284370542,12.749489837748806,60.078732152715126,-20.16808219102497,12.171946869262177
0.096,15.325470775703264,-68.11033918560298,15.51868603550453,-97.79980352934123,-3.1678198289182973,10.148856587221678,7.675600298821059,2.0052401792052286,65.12676836183665,-15.938856135380293,6.932917606129326
0.104,19.43012079272586,-58.289060949511644,11.41280174322994,-109.9201688269932,-3.202034346105477,5.058840963910938,-0.7943193837029491,0.3626782105735441,54.35400791835677,-27.563467347608395,9.144691577444313
0.112,31.855957965406557,-60.059235006280794,12.986974575270917,-93.7099841795806,-2.4191373801433573,3.715507806947076,-5.2564989814784315,-0.15766507351830797,48.149554748351086,-40.95437913506209,6.88052755429573
0.12,37.799023886993055,-66.16109367214027,9.845471725265508,-74.59733134653777,-0.6450338922849896,4.2697105363678185,-3.817696606289197,2.18674665441068,51.036883451319554,-43.75448056090123,3.855737857281273
0.128,31.084156170806818,-71.41964935231503,6.848069285483934,-71.36874880465422,-0.965941758504093,6.009555108403547,2.3959130865417686,6.017608422599351,43.37512782929897,-37.41820095346994,11.634628384007994
0.136,23.135799071214127,-76.986010758407,10.571152625353927,-75.58913335638074,-3.6389730187973983,10.114994238934331,12.235377769993551,1.9359263397484743,22.147591291663687,-33.17806597051345,24.53527811268841
0.144,21.36390627682009,-76.36491635288469,11.787334837757118,-71.84491912717046,-3.7846411907847854,11.483491228804542,16.288865635610872,-4.4959167715914745,9.599157305807775,-39.512579478132004,28.709651480151955
0.152,16.68296290912561,-67.772882178723,4.935258935885709,-59.31781853496663,-0.08188661446043138,4.545164792599574,6.794260473813134,-3.797870974962823,16.351999226375142,-48.9323082023604,26.821144897860957
0.16,12.430704517878826,-67.45855971802334,-1.3944018083789391,-59.45572359650838,1.707482637965755,-2.365412432496348,-2.5565132921062297,-4.446098770407387,25.415357838218775,-51.58004231606711,28.33098298965191
0.168,19.540546439816417,-74.85735786732396,-3.6297055566949052,-77.02169219256264,0.5550851389391339,-0.021321723013347373,1.8427210376149443,-9.812237926924253,22.198613722290972,-54.45965370699754,29.110935585647518
0.176,27.20474256057474,-68.25131338439458,-5.341978416016239,-79.97358509879102,0.1328593393804487,1.4681162599469064,3.350439107230261,-9.606009948132057,20.583947398779475,-60.16961311740762,25.468475900250414
0.184,25.51549593213503,-51.420577714960835,-5.374330368300777,-66.62873221303705,-1.4865881911793202,-6.691238668622537,-11.295190813807507,-8.338424218691799,36.63018404914064,-55.882241512872895,23.339758685738015
0.192,21.963391245676686,-39.9613625547539,-3.500295588947315,-73.17178528386059,-4.2594174326167655,-10.146954992601533,-17.669730782917675,-13.840097773790342,54.4137067500225,-47.00817505030109,20.5044358670859
0.2,18.688042285590193,-27.04841585020344,-3.5881862912974603,-87.52713546166939,-3.959002179483601,-0.9520664570224522,-2.032365401665454,-13.221235574190594,56.288906642886,-50.19001815493776,15.03694858794499
0.208,15.925871630692672,-17.9667981369506,-4.702545428090139,-72.25226929491583,-4.568773980153644,2.1322311141527153,4.40946546801403,-3.1661007581949967,58.029013611112546,-54.01923056802841,19.789333479350855
0.216,16.06476693161818,-30.70360949392372,-3.05894797212277,-45.38536713910994,-8.538287039724798,-8.522029272659353,-12.197292640728696,-1.3415561802525062,71.8029381219564,-45.098832804301786,33.638202345986016
0.224,12.335436426580422,-49.891961250962225,1.8039617720225292,-35.76286642870489,-8.356321494338484,-11.207401248034008,-16.814325680441957,-6.188740663715891,82.41980177031664,-35.909748501348815,35.39134392891767
0.232,10.971796519553747,-59.30429814470291,9.311837452931288,-35.342332494414585,-5.6467886218592085,2.3556436967574195,2.5685567347648623,0.03581927941636147,84.04327532674166,-28.330771958561016,23.96000970110286
0.24,25.245668694219024,-72.5390143851485,16.74659121825346,-39.10116393038437,-7.571061053071967,10.607426511655873,9.64450212685104,12.591204205778208,81.52300989549876,-12.780224338413849,15.874986839110742
0.248,34.64736445701864,-83.59695027899393,18.02559126293267,-49.04404458270022,-7.769227240676108,5.262585057209253,-3.5045619788448135,15.822116646603352,68.58593660986368,-2.0592785150355466,12.421689956707826
0.256,24.64590393468974,-77.27770568998642,13.333848302692585,-59.2754797961991,-3.967245194110202,4.325873505182565,-2.6203396622508004,12.623809703048483,52.629028253746554,-4.580903374579101,10.564074494355609
0.264,22.964609938547497,-75.80742951752421,10.767518815402257,-71.11569281250229,-6.227659495085492,10.451521335799573,10.272904802329919,12.304531112617488,54.39382313692654,-3.322892213285098,15.196657726349718
0.272,30.791419499985338,-90.22619425731821,11.582646186305336,-78.18141741989115,-10.168757930163789,5.674379148222559,1.1663959676887952,11.64106332670725,68.19895818399796,4.321603529955729,20.88408996954722
0.28,20.383238919952266,-99.02098984588109,10.57392010813939,-72.50137192621874,-4.35349279070653,-5.294962475888627,-16.606146538835944,7.244587900876602,73.04943645644798,-2.4500334803897914,19.91888373740427
0.288,10.50704624163688,-103.16160963108761,11.119368329721588,-76.11332471977376,2.875348595233012,-1.170549546253965,-8.197183909600692,8.582702298932825,61.36509132203472,-32.857238176527076,22.837345081121057
0.296,18.068265202304044,-102.5657370556731,15.982364438843632,-94.98015392140015,2.651610495748799,9.217400511386733,7.70152920480927,17.687274194214798,39.938300658655,-72.66113557894364,36.40048628573934
0.304,5.978736017786595,-71.4172292613603,15.456670343135862,-101.37221020285031,3.2352636177506215,5.372950602589817,3.3729571944950334,16.55484471666046,34.40247816325236,-99.11237356411229,44.630658406118066
0.312,-20.727243245012797,-30.67931611019826,9.605846044401872,-102.13652081407768,6.81334279004815,-0.8760146456162964,-1.5512014293046177,2.355465244171054,58.03926609623203,-107.1828265875318,37.36491345588156
0.32,-7.855037761409061,-30.26376603892421,12.688149361928476,-110.91743376004288,5.981336333682272,4.176332585294281,3.2169056446247972,-0.5654191586485731,77.52112366504532,-114.88475427303631,27.24276381373378
0.328,23.428191746299365,-55.72322977379097,19.07973664542252,-99.01430013634011,5.015251580898219,4.902398516098753,-3.9922660641554524,10.605064429073442,74.12913029422582,-121.92658899681027,22.920545287424808
0.336,16.647752755865756,-73.1124824139566,11.244064000177133,-78.91237411336445,9.870476403335308,-3.5992044841434687,-15.872615610243358,13.152756722447215,75.0081064957798,-101.40412580383028,18.20943535694971
0.344,0.739954323130295,-86.45491942775263,0.5111758527661552,-96.10927905683853,9.978805269386523,-3.0022381031912446,-8.839307173426107,10.135212785046317,83.57633676270578,-59.93100039920347,15.629867887414614
0.352,13.56231480884241,-84.01555867291503,6.390265137985036,-107.1132027583771,-2.6279097535065583,5.01119226714507,2.7119922706187842,17.209091472033013,94.15869787236203,-38.64459750817524,26.428291700598564
0.36,17.63367263935613,-59.4017187963543,17.440350294560716,-54.90071095644124,-15.553290309144707,2.9648510679132487,-0.7765071659072872,22.535841279098122,135.72146696316003,-36.734270189015994,43.691866183167726
0.368,-1.2268510273124242,-62.550278255639086,17.25178023291564,3.465215553183658,-15.387610730952197,-5.569054508335082,-9.399280248848948,17.580083940939204,184.0632024381222,-20.32927535999115,46.800521073481754
0.376,-0.4288741929765153,-109.0711642782786,12.9170907684789,10.814903747352547,-5.233758885595632,-8.066606536570944,-14.855911953886165,17.22642594059001,165.99646862403398,3.2812495923591145,30.538223428134735
0.384,21.85238828001811,-148.30103460659024,14.690328526611761,7.97179064141637,3.1149702045229497,-4.444012413996892,-17.420521703379464,24.91353271434863,107.48964335329751,22.1572341538231,7.966081619643757
0.392,35.31985359290459,-166.8281782471163,20.601923596118517,25.268494209843738,-0.955393357158624,2.237574084542725,-11.614450489210192,32.70640164021003,88.50962468278804,77.66563358362042,-6.031928837024681
0.4,39.16565061804849,-171.94803253664674,21.285279981853257,32.90653627599355,-18.59026535595166,7.0547101414899895,-2.670574777703781,39.21257320241515,91.53502514241919,179.99078740907495,-4.185686298884786
0.408,32.75456346746838,-133.4900899764735,9.506757113541823,18.64937310804034,-37.563090831589314,2.964899232760069,-2.177444305708789,36.852026019066926,66.3691423013517,262.7745432788408,8.585891391082054
0.416,17.896656926569666,-70.3035404206496,-2.715290731117534,5.3945222538337525,-48.64701554177716,-3.3793997839555,-4.0412510626110185,25.072059249222477,26.76952197342611,294.31903046662916,19.901201058480193
0.424,19.923238090738057,-44.41753004461515,2.0761405923272935,12.077659006147506,-51.703616253650175,-1.3526618296764839,-1.7351824436559524,21.47510896366383,-9.197190929513889,293.04754909044334,20.744022033845216
0.432,22.182010542067477,-31.127023334135394,10.980627624046505,36.02333420883593,-37.7204782743487,1.3197750556803185,-2.8410423467020904,19.863833863012545,-40.99739068807033,230.59137546050752,5.906845596044893
0.44,-12.219311680535961,14.482537827720467,5.148817405498135,52.8525644793814,-2.264805890177329,-1.8118029096780504,-4.7552930399554905,-1.0545893208676118,-54.88720021882106,92.19971675013144,-22.500131031049854
0.448,-38.27049630681301,43.78301070869158,-2.2907676248590665,46.70391529847322,28.56731208474196,0.6397539982774731,2.8340082619748372,-21.834581415840955,-60.21542443679202,-30.418102687370407,-48.34678415694103
0.456,-12.903147202442032,38.79210680047844,-2.6836756944760127,38.941699344287784,32.77734960778033,8.572810637583085,11.335517782121691,-20.38995113138099,-84.70953875610634,-63.04770453240794,-58.73484200668837
0.464,4.100182760510172,72.77189725356574,-11.98386854539642,54.42965423025829,25.89108591111159,6.316370493479411,9.425207766771678,-21.622134576380205,-118.50496931175952,-54.93848386284452,-57.722921834736624
0.472,-20.87710129524002,150.79434847727748,-26.104383480037267,79.92733391855016,22.97127349875004,-2.337963523639505,6.8329129764354315,-37.3917625923198,-144.0542007823344,-62.141279196873505,-49.67766031499067
0.48,-33.94022915138858,204.2766046539073,-26.551814857514373,89.2805706245221,17.140884845160166,-2.287954105806676,11.99909103262984,-41.47417217650879,-173.33278195864514,-72.76867992095498,-35.550089390380336
0.488,-29.995431705076392,238.06336786446403,-23.233889055633128,89.26439828380593,13.110136944559098,-0.024783331534261745,14.808180553985464,-34.76713562736572,-201.1516448954134,-96.84819568837554,-24.553881212394867
0.496,-54.49452546095824,288.5389712415545,-30.548582605759663,104.17606738039088,24.40906311004548,-6.885050975338153,9.08437387402971,-40.2381785752075,-196.84613770037268,-166.25017415066299,-23.457341648227274
