time,C3,C4,Cz,FC1,FC2,FC5,FC6,CP1,CP2,CP5,CP6
-0.2,-36.70620036900273,-104.58630174853684,3.266244848910715,45.35968006375076,32.02937265639467,2.614930262713536,8.437196091384044,-11.414281844523948,-69.62783716773116,8.857662902884265,-18.45938536496047
-0.192,-20.89294153372562,-96.37502616205698,-1.8223059436897604,20.470110064509274,26.404335814118706,1.116043560468039,7.001802851151603,-18.511563527259767,-88.63949244580733,-4.015975717890467,-8.880287486374032
-0.184,-19.36846977259525,-88.41458278642304,-12.916626821146073,-0.04829675635244947,29.15489024493055,-1.7706302544924242,4.052000213430159,-22.597278240851352,-111.31667157905062,-1.545881061313635,-15.56063579212075
-0.176,-35.46641213696293,-68.49687324559402,-21.974384533282972,14.107711852490214,33.92328389114536,-14.809503197336273,-13.476870057245819,-29.05878074786514,-136.8900087184862,5.2333799130463845,-18.385395009840213
-0.168,-38.54129016140246,-36.95213778639966,-19.713961219861524,30.991256478185928,28.016192144863886,-15.984584671538196,-14.218943456220211,-31.947926482609656,-123.44552627013678,7.322658973886501,-15.240326577721396
-0.16,-14.798035930342484,-22.179985032323618,2.89874718585303,21.31626764880117,13.811614927041791,10.358708655924703,19.861645273406793,-14.94370490620259,-83.59121378683119,6.106232039711084,-15.100935832744682
-0.152,12.782212182837643,-31.308677623202076,28.366092067393048,1.225292937674632,2.1419531288771307,34.02264674930659,46.596467142594676,12.307942792619736,-73.5412979404332,-1.1143007298392344,-6.359724863224694
-0.144,2.4919222680107884,-33.496212576275276,16.127250575761003,-14.74377482397981,3.153382478910838,21.841466563037105,32.194973148849705,10.544843694780301,-74.4821121334819,-6.697134948079604,7.7087311635452735
-0.136,-33.19009939072227,-19.63763219432872,-25.11168449858099,-25.136903810717357,13.679208397463428,-9.135876223142349,-1.0088209790264744,-19.024582876642462,-37.36113860733476,4.180312392210668,1.8012175315270629
-0.128,-26.681887892281104,-13.330124419914553,-31.81765763281126,-28.43850337596711,12.698827560004972,-15.077819069659084,-12.579582622502313,-20.20384893130539,11.236627265208165,20.79027563141077,-14.436768659586575
-0.12,11.905765017618497,-13.942835206656586,1.1237504404797933,-27.6824091081434,-3.223168910229841,4.680646307472609,2.4054042877677486,12.484857618076806,23.11278950966149,22.405088679554073,-8.16210116137282
-0.112,4.904589239434768,1.606558281261428,6.694552143005124,-18.092197743143217,-8.123989552330645,5.732710021808709,6.164968479992194,13.998520304431349,5.983943099170949,15.984814344915389,8.77764841404838
-0.104,-25.57757788501632,27.168210151816584,-18.82732691670564,2.125479047352853,2.117627077076077,-16.025172518617705,-15.636137107665892,-18.45982690953264,-3.497939284342258,14.798942060751557,1.7073227019253858
-0.096,-4.525983563242914,38.757191557242244,-11.765116306150086,7.81720289056099,1.2686224190463202,-15.48801283233666,-23.549965312525195,-16.06817802348081,13.569611639370633,9.396440026420239,-17.081395230209676
-0.088,30.439447002221748,38.42875243286127,17.47612092599144,-11.447465808241526,-9.82394749597239,4.8873316754572995,-7.340566917983453,15.492511647471973,39.26892427981138,-7.202659217897781,-16.16676932580168
-0.08,15.584384911187913,37.9151084786464,9.675474967260758,-25.102263209091983,-6.519417464149539,3.861888848711487,-3.24700230980189,13.682625378358333,43.44102291186127,-20.045800464645968,-7.867545193646567
-0.072,-2.6713850188581403,26.095262293197116,-7.847057301399136,-19.143217665729697,2.010846764332716,-2.90702992199856,-4.43631866754184,-0.7461430587953932,34.88490026337515,-16.71872373524818,-9.602371838912049
-0.064,22.109409188804484,-2.6684382304240177,13.991998639646296,-15.081827891518525,-8.823913261991331,13.183663393195777,13.051975709320468,18.578452363240817,38.84309395110036,-5.186193486103713,1.5514233547122318
-0.056,38.095936071036895,-15.55114580385151,30.015285495196437,-18.442161381010543,-22.944482146778185,17.089829393951497,14.96213591017548,29.491405236271405,45.44810680057146,-0.2851692324586654,27.14648916245483
-0.048,10.209510301608447,13.750222282742419,2.765684640941791,-12.599734253632736,-15.439930248840184,-7.762652325745351,-12.40903501752038,1.3977589780528443,47.101208758415396,-5.5933084059131435,26.173726018342126
-0.04,-9.858868032970609,52.868141543882636,-13.132787474152334,2.4296792522708466,-6.223794239066293,-13.995965572236033,-16.598485530510175,-8.989892472119923,61.673574167948786,-12.32235540998952,5.8147215974121185
-0.032,12.286995420241697,61.46392530471861,7.095929771172264,10.126849205948766,-19.23114792692423,6.074949871395228,8.01053408901691,17.28758000491678,80.05596889361998,-14.290173526337101,15.893215155081066
-0.024,37.24305180835973,58.04642040720848,13.896466921398776,7.354514298977013,-33.488932399185856,7.834138652999277,8.029149116850434,26.799377182356764,82.07876692453928,-14.616385077021635,38.89374400412887
-0.016,31.904793308730966,69.81135807794244,-0.6100896990765018,7.5410785766145985,-27.190212154214468,-8.122071382600316,-15.338444820141673,11.882440657569706,84.4772699325367,-12.577311371652456,24.860959001042225
-0.008,17.982565974845233,72.86363490409914,1.0298950378947487,16.879632020982115,-18.119024887021222,-9.488604104861409,-20.038782202845933,9.89195011449754,94.84950408201065,-2.7103195414767387,1.5100395197991123
0.0,20.338568992184022,48.165187100368115,11.115504685951061,28.21400148940919,-21.25819681750226,-2.7310318818774983,-10.889297312408967,18.125742048544723,96.3679254544339,9.845884961076921,9.464404712496922
0.008,30.602910278282657,21.226757141476295,5.946547647285553,38.35627061725972,-22.33390600465296,-4.685002048774367,-12.382592269777371,18.28551939349532,102.44633272081538,18.586594833667785,13.913808603855028
0.016,38.74556423395639,2.7394170009089165,6.410107671012057,46.70668119969971,-18.29924466236356,-2.882050262197244,-13.54834475473426,23.614589809637337,122.12261506569124,30.38103824713864,-3.2605438275236276
0.024,50.23415543106488,-23.108537907811794,27.282770952373916,44.43983942864709,-24.945720625641357,9.370450044086638,-2.1619773835889915,42.12973541738335,124.05223340192524,47.81151716371083,2.571017579304609
0.032,55.19689435900208,-43.69421253721423,35.65871962753596,33.44875761432988,-33.23987454751326,11.50133475545561,-0.054003940050254245,50.02473429758397,114.87202639674958,62.23358754815661,22.74147304251077
0.04,34.31076032654081,-38.69435429671378,13.792535027658262,32.69488788379311,-20.948583784304315,-4.651698507585921,-19.63189530163338,33.4609769454652,132.20861223364258,69.68436361680618,2.717202651834942
0.048,8.384782929579574,-32.527450007541944,-2.9895717587644874,40.92861667725292,-3.0355256680670633,-14.643530220120384,-30.71076928070192,17.62230291535017,150.45544065542964,63.81770716026971,-26.757714518059363
0.056,13.763443193733467,-53.037423669842646,7.243292273208605,34.81915018563555,-5.512996655948107,-5.4864089795243745,-16.585111956879643,23.685375030205243,139.22704497505416,40.37789804331957,-8.080477704630109
0.064,35.60959065017222,-79.97251410304939,17.83007260301706,17.131316142721857,-15.28795271795434,2.8967367187823205,-5.618488589309245,32.60681689373534,135.52399782825603,23.12394251246014,18.08085887812621
0.072,41.62561842980862,-85.67020762110377,15.912697070977531,9.56921675894608,-14.924806081436154,3.8398921713238825,-5.110694835009784,28.72415557589802,148.74740455089363,29.419317098512764,9.069976206279673
0.08,35.42623517006912,-75.07540897383964,16.434208510570496,3.2142895970475722,-15.055630347546238,9.231205843103194,5.3447647850859905,23.83719836244388,142.44449466939847,32.23319700440926,6.171682440117553
0.088,22.176709479010864,-58.92032550532635,11.298661458145236,-19.70029048489584,-15.215159947619398,7.609272896924006,8.16389386110391,14.815315943603581,133.95070251655318,15.085142144188577,17.404404593672602
0.096,4.017205231054688,-42.63163745883678,-3.1668685376717063,-41.10329229936004,-5.110011844081533,-4.617561018190359,-7.570909174729634,-2.8012395484564894,148.9225112568485,1.1611697092812998,2.067940379436799
0.104,8.235860440699112,-40.73811885952696,4.022510628625861,-41.906896126919186,-3.446902649307876,2.8204567552053095,0.283291748931405,-0.3746711940581559,151.147766235647,-1.0417990755400945,-9.626252508071316
0.112,36.08557780152241,-51.35523496010168,29.521562376035156,-37.80848467650527,-21.354143486987258,24.994331503756932,29.259509641431098,25.063685473254452,133.36565990492014,-1.508113173006054,19.894109921883825
0.12,45.27050394207189,-46.592410041887774,32.11607009290284,-41.96094096053155,-30.678545041812857,23.315164501925167,25.98899150757886,31.360218839235333,136.69693392600962,0.4720343932090346,37.114564610372675
0.128,24.263564287993226,-23.51912493304312,14.72294426012557,-42.008267760762486,-19.532808530623186,7.276097237085506,5.224462010524233,11.095315750773192,151.67415549546462,-3.3357683218926963,16.359194245450357
0.136,1.5120262305512377,-12.208922507920375,3.8097283128404613,-30.80750617068677,-10.241819209323989,3.6070376407184686,7.528484615905897,-6.4167675125426715,148.75180754552767,-17.77474462172985,10.198633594024214
0.144,-1.3346285664244275,-21.80960241804881,-2.3644579083815125,-20.508258389982903,-11.035425918106762,1.0015467989129099,8.899916972066585,-12.834402160535788,148.65657635017922,-19.401060227713824,20.902871619827597
0.152,19.221638657359627,-33.823737939459434,0.6150286727629792,-20.59803515262854,-14.682114906333068,-1.693811331104434,-1.5314776947005884,-7.493971309194633,161.46735039567847,-7.895288751194926,15.05024714945987
0.16,38.323638458016994,-37.831120875443204,17.647502122717796,-20.46972561686722,-19.654761362025223,6.824366659590754,2.67553668675081,8.764257823562781,160.34733935146025,-13.772438897574641,15.699986409494345
0.168,29.906522420584995,-37.524380890234674,22.108776447371422,-9.113302340661052,-20.032403714868057,7.528247767353134,5.63188323034726,13.978848803724638,144.9252285884976,-27.318443693412213,31.382980695467953
0.176,17.50518462188856,-39.719741561445446,10.397859782257255,-4.633953230004079,-13.958235666493245,-2.819276379822334,-6.48681050109388,4.584280034510925,136.81597112616168,-20.416078712809163,26.923565798016412
0.184,23.33031796347337,-46.05677597104401,13.378946448580242,-22.266672907357673,-12.915890135656838,2.530012728125401,-1.5695131798931936,5.798778626819481,140.5493788891462,-12.849903039987264,15.020162209705584
0.192,23.840862791747334,-49.86932589003594,25.127180875645887,-35.386934025496785,-16.23344221754265,14.313177880476577,14.909137079229565,15.966291190207997,151.74176684441616,-25.156533479740716,23.531402335676123
0.2,16.22310716192649,-49.15204921187712,19.892691004602195,-28.107643136121816,-13.302129337152738,8.321986119950026,7.770385504770967,15.754347792273265,158.91384159129026,-33.100809375684804,26.701751132641974
0.208,20.40588246303806,-48.35710215272696,10.609048750465139,-26.22943990832026,-9.022261390520901,-0.4154597490814783,-7.113808556289616,12.724451912853237,151.5717005155594,-23.955486100757547,13.603446187756507
0.216,25.462238681126532,-47.19160352428278,14.854239026990134,-33.320863204744946,-9.896112815766587,2.730964099963842,-5.634531435708685,18.222937814523462,146.1281787310831,-18.175980287888667,8.863268372889182
0.224,28.365659900518377,-50.22637830158826,21.92829488748227,-30.900609410259595,-10.893261289080357,7.803404227680035,-0.36773923584356694,24.92348830649873,156.14005948017405,-20.668623939606064,8.21064509846086
0.232,42.08897354954249,-63.60097960934792,24.002023767980788,-29.764903342057817,-11.863727920299278,12.2826628336501,4.138390277192851,28.83378145293178,158.8198546630579,-18.62553552521104,4.368677534253191
0.24,48.29646728920603,-73.57460417313224,26.300170191281353,-31.287207564208977,-15.879084117586094,16.988102850421598,12.340167726199766,33.469467980085135,137.2281857264496,-14.904007355806318,15.999669020347037
0.248,40.03632705480164,-69.02824487117218,26.98217943718095,-16.196460657898154,-19.027259843200905,15.459425455729514,13.746705136836539,36.324236394734285,111.27212104297196,-14.400173295181672,34.60751845715922
0.256,37.9423454681971,-63.23696806310067,17.169706828149096,-3.056192880417978,-18.333056390284312,8.492837433954646,6.041559825900712,31.46242111423308,106.6624563461003,-3.5513884760630146,32.75164727557775
0.264,33.29498077362099,-63.172383228375786,2.3670300775032844,-5.814677444977004,-14.85062520318309,2.3314828685849753,-0.40972078695849945,23.24870350655838,124.29936352337528,21.968435680872922,16.49556094427218
0.272,26.552391840190932,-65.51253267248644,6.38743046535017,8.53885643616349,-12.938743578305964,4.798311928448605,1.6612994284125857,27.952229675839735,135.35879033144542,42.80767814277487,5.2943148097196975
0.28,43.74013134991645,-76.02512596361443,27.852001181947013,35.88663147125269,-17.327685248738348,16.070675263649044,10.61742904744411,43.13096827344494,114.14331559031547,50.323838669643294,4.400407541318964
0.288,55.631770165929574,-85.66845437441414,27.719112863949494,37.76239318990089,-19.926631868785023,14.144555452876466,7.132919659059995,39.921250489595614,82.66681006725672,53.154468835814434,10.878232042838844
0.296,34.59129214902616,-76.11164215400285,4.213690705339354,31.791850688200174,-13.11138858025386,-4.8979591310745985,-12.988395533858016,20.23167439439533,77.89758837693243,48.54505897124097,13.91347596056362
0.304,27.856798265757607,-61.13220618567354,2.0985292522203856,40.28074211239889,-10.936674025325917,-6.4125214948011156,-14.263421647341428,20.636432424153718,94.51317860949713,36.68979925138986,11.264882539955382
0.312,38.85921950516175,-57.065958916555196,16.71635022241809,32.80936935966757,-18.180833652931994,9.435676700083267,5.941063045459399,33.80373895120085,112.58758084695738,36.754683734467854,12.680144424847063
0.32,18.252358440587525,-50.30200787086972,7.777713650358831,4.802534252219921,-14.282747109217299,4.630543511459403,3.1260269328650825,22.104061661568046,121.15877333983917,43.424259848393504,8.76670950640584
0.328,-3.3823373752609704,-36.41790498154264,-6.728487060928294,-13.236109392363524,0.048243116945454724,-8.626025486809393,-13.626748822918126,0.6326191027210577,95.55341826705715,23.612112076440475,-6.2042913553968715
0.336,8.61380934456919,-21.420148949530695,2.879116223530263,-22.259636797075583,1.742281271981583,0.5856724999277925,-2.9369347129523034,1.6053756778073127,41.94786794190023,-16.914894411071565,-3.939493192652467
0.344,5.756805746611807,3.5101601105399234,10.389219210355431,-27.77775302878968,-4.773484015555916,7.949611102141985,10.2422906512262,7.895926111498767,21.554018066860817,-39.458037713802405,16.872642210792442
0.352,-14.448046964669667,25.77233474612181,2.637347025001305,-19.065794432363074,-1.996943253524026,-2.1748430971069705,-1.205086837541706,1.3454257968304877,46.732087175199034,-45.308216700150275,17.45061538104604
0.36,-6.062850218723157,16.405902772179903,4.265801981620546,-10.854874257401415,3.4797001686699196,-1.2239114459047513,-2.5812889383620052,-3.2768285027175224,58.95541573496551,-61.59760567688766,3.934514345295341
0.368,2.9486373562566626,-8.768737294672981,8.968892866680518,-20.851479693983357,4.228130053933701,7.774437683105298,11.431799029389484,-2.47850578965127,47.52952339156696,-78.6967517772989,10.54660123300429
0.376,-13.67749275811697,-16.70808839498578,-1.2377941525025873,-36.77837421819899,7.59133035796654,0.8575433414123583,5.5772524273263375,-2.9086873401081763,49.94227859681423,-75.90686262988801,18.473705216871462
0.384,-15.47736685598574,-11.613659168793237,-5.799794806422317,-48.0801377641441,11.01496897311223,-4.3082692300636785,-5.712547392204647,3.9351425289931603,61.648240241764746,-65.76593580272545,5.613476399659875
0.392,-0.12813052916364231,-6.384323348871955,6.540734162723436,-49.63501656939818,5.135448103294951,6.205671686722802,4.364934294602726,15.450792225743587,68.64299919468768,-59.75931163994908,1.0164846839594994
0.4,0.4723359982446977,-5.25840950139427,10.992744995480173,-30.662012152338516,-2.3481276787495666,7.700771014558951,8.833431244993164,14.394747058463484,83.86785930070657,-50.38172007094799,13.222668785749514
0.408,-5.148644069039471,-19.375187974966224,0.7301219780689823,-3.6887797083016984,2.208781942689445,-5.07194914750589,-7.21142822287453,3.3502002507184256,90.39688290488564,-43.71745798378676,11.748164528734899
0.416,-10.186595710487303,-45.81583220166815,-3.1811169276110673,9.025423908895217,13.444436387943139,-8.646478330514972,-12.535492179641293,-3.1585153470628473,62.66365118728155,-41.58990802957722,-0.8945676942854871
0.424,-16.46182576635106,-68.31386736298944,4.933833605815814,17.760356247794167,16.935851608066013,-0.9838063219030436,-1.3359175747334409,-2.506987219946124,29.426647543779293,-21.41712822726001,-5.7584623331317015
0.432,-1.5987356549297926,-86.30757365011425,11.331086401461475,34.894961241053146,13.970178543392283,2.761659523961934,-0.5616364527351514,3.5649812095559565,15.327306375981637,15.534852491637944,-16.180161712399496
0.44,21.35687138419674,-92.12525083322232,7.288240897227036,38.36408836208019,11.457216338879961,0.3377581412453927,-9.553662292316522,10.021584891254438,-7.97571795298062,47.07563288745854,-29.447535543438462
0.448,12.49436672403981,-61.819498077421834,-5.119010899410773,14.370665705906115,2.8512531952753086,-3.7048577049012152,-9.161210722319897,6.024935621866613,-53.96897792811973,81.17968518207951,-15.908857778699938
0.456,-4.870953536936587,-7.822476149203813,-15.848975398911618,-6.962998882088209,-11.889314322560338,-5.382258401451701,-1.0390782026224983,-4.558706311925233,-95.91096465176626,117.56758395083486,7.112306696506697
0.464,2.4542658483065347,28.135346750649056,-14.408314538219901,1.374200441376437,-15.695554874680393,0.6849459536761328,7.893154982557888,-6.4050517005561325,-123.3626698335388,119.0849726009282,0.6303586928417877
0.472,2.1864149195287674,45.50719927257808,-6.588993541642484,18.511088036762718,-5.687183237627919,8.376934294097307,16.10514493880959,-5.762996647509032,-150.2476976973499,81.87281790611222,-16.039002451138888
0.48,-24.925474669402206,73.2085291363066,-8.88520158691007,22.304811524216422,5.81373645318171,2.8855730508247905,11.935389205713038,-21.685203735922496,-179.82004033442865,40.60559910233978,-17.896521925639842
0.488,-47.910479663286544,103.6214605409265,-20.33986404221163,37.0280049060951,19.7840420492747,-11.741893579596265,-5.810339926753899,-47.80567268657858,-205.5864279743559,5.773520096031289,-30.225771644982856
0.496,-56.05657564976155,117.36227942677368,-27.556558350876553,75.83354114299517,35.62715489858616,-19.463787447750537,-17.16645845218539,-62.830051975262435,-230.16749510857312,-19.257569156700267,-55.30813122756361
