time,C3,C4,Cz,FC1,FC2,FC5,FC6,CP1,CP2,CP5,CP6
-0.2,45.41032633648962,-163.42708957779155,15.381421291711286,-29.80114885582681,-7.795015828733934,6.447503196295505,2.2698362342656697,3.4819445124803723,7.986331666729512,57.33905554468665,17.3256759328434
-0.192,26.77232628428439,-108.06418616719172,7.3308483642373305,-14.363006571333354,-10.77129115497341,1.3586528701292946,0.6285635404579019,-7.503358569658292,-17.34638884627741,72.3511954729373,17.00135114067586
-0.184,43.79733237042572,-72.65634084428902,7.975552327714943,-15.550118263244784,-22.016203974545174,6.612476068320156,10.83456398905077,-10.112787690675049,-54.391236440052595,56.568956751116865,34.0650939847884
-0.176,50.86605737011442,-41.703623059397295,5.476278450858592,-22.29490449929145,-25.52825570270297,5.405295034158911,9.592736090737393,-5.348472761467674,-65.48056873139849,19.63504796442763,47.86419391931965
-0.168,21.987590040545165,-3.340103963312492,-1.0579736617562263,-11.725244286689755,-16.700221559431704,-3.9376317243081638,-2.5241360033658107,-5.389418249591188,-38.52210195341947,-2.216294345127018,39.44299012675916
-0.16,11.660831055745941,17.27551839374926,1.2037914131650171,-3.375386344458999,-12.220810209653541,-2.281156732218881,-1.208272583830025,-5.048420535011463,-4.495249879838189,-12.932198611995465,24.796566834082526
-0.152,20.7694723163219,23.50326927755896,6.634503102510267,-12.774561857240263,-11.767796213241391,7.2151734332564,10.144438001097546,-1.374701945425583,16.517315749242304,-28.392399173081582,14.35741376286551
-0.144,11.200672422381402,29.494240144492075,4.266899654574083,-14.000189499894173,-5.6299429338556815,7.302347367138662,10.561111232789285,-2.190273784806796,28.822708856952378,-36.024072612344824,3.5582127295336576
-0.136,2.369339738311964,20.473751059890027,-2.4653281074110955,12.582379419736771,-1.1314944048598148,-2.863251519393418,-3.673974736646969,-5.01752183748609,34.50597993521965,-17.822320125878605,-2.6141187799976735
-0.128,4.953431470239331,-3.715398611531885,-8.213110686867369,40.53947327999866,-1.3973142966479675,-11.34584675654812,-16.39845065329384,-2.7706038153379615,35.30028743338741,18.305684135633886,-4.352439473687701
-0.12,-0.9811163012542399,-21.44963562181281,-8.339396465636419,33.95759394682785,0.9466394635675778,-8.042819701666774,-11.887825763367411,3.5303594529676494,35.93789932073468,45.43932671594473,-12.168962754255348
-0.112,0.7916983676877561,-23.798190125242595,0.2954450843994377,8.028078598468108,1.4398685485867802,2.964139092382955,1.1496080200832568,11.624920941207963,30.902646506754134,45.65636179162706,-18.839597622096026
-0.104,13.512625662650278,-5.975688266680326,7.355559340101237,5.5276242604856,-3.0470100346804267,5.372676545940261,0.9668428151251086,17.53299803219987,19.07242407136306,25.607655088545417,-12.756027143434487
-0.096,1.4147354237779715,25.73892120432196,3.221797958810377,22.929898322737905,-0.9812260652132867,-4.240313698715047,-12.16126535810271,16.211661933809108,18.60016791604702,6.756185710314528,-8.887101060385948
-0.088,-25.341230800464103,40.00787822905618,-3.01958604263044,27.554097469136956,8.862624634737678,-11.106241342460788,-20.144623964532148,11.319435033717427,35.0037633678491,2.3850061324134195,-20.970191150725608
-0.08,-30.082240449418407,24.35727323061337,-2.812191611425695,14.790423207141416,14.244225484968581,-7.772908737796848,-15.375681408983358,8.086040165068718,43.7919030431872,4.348645840759815,-31.624615033797152
-0.072,-22.54995139241703,0.7507462631505094,-1.8610719162178564,-5.220606486005138,14.08348541575233,-2.109399230072331,-5.8022116658992005,5.772311135776577,28.313151543056094,-2.878016623221517,-25.09321173754341
-0.064,-19.13625006017804,-14.0843242405364,-3.385356608605877,-20.020579583160224,14.545607521158255,-1.0040497817605958,-2.3105691025925417,4.884685921107207,1.6849716220456337,-17.11242711514642,-13.015255245107706
-0.056,-16.28571973173607,-10.951518727088617,-3.5353682452500115,-13.846602994759312,13.938416152431387,-2.14132218433171,-3.61536261328771,3.7159693716684488,-16.872626709336277,-22.982558796350673,-8.310565818216544
-0.048,-21.37151877651682,15.900449513562624,-2.682648822769461,-0.5126982422448743,11.1775593505364,-1.0360741844960746,-0.045201096529138264,-1.9376837556889464,-20.14221680852335,-19.105414479715883,-9.829046002628042
-0.04,-30.506422252875,43.72296071819118,-3.3811697833120244,-1.7737700883228371,10.026500706314344,1.7375009672821429,6.290888954979231,-5.916018212115854,-13.330213433014059,-17.518670010642783,-14.387780564692259
-0.032,-22.742215904412255,45.990787637481695,-5.24214308311714,-4.401317735237173,9.016151583823259,4.177999708142358,9.75056619585333,-3.6241715946344915,-11.249462715303048,-21.53758917091045,-15.79878638130507
-0.024,-9.546642835546228,36.4362897627978,-8.4002755752815,-3.836955109652468,5.952075421253364,5.900472383098681,14.141130990367813,-5.966934314171049,-21.354333940399165,-27.71483720777541,-7.954834585207328
-0.016,-15.872831257141726,39.39794154027046,-10.569346879666163,-10.939746142938766,5.679460588274827,3.8732319491428675,14.292726614691187,-14.215068923333474,-30.078092876501387,-35.75003423349804,-0.048140274398958655
-0.008,-25.849463862798814,49.727014802102204,-4.182389934232472,-4.189983109209559,7.312882326014596,-0.9007269712326192,4.301961821298687,-11.84106869138293,-25.31647548383556,-42.84533588889312,0.5910946812842857
0.0,-15.240835234217133,56.38905742763645,10.005260436097188,22.717251164976673,1.7610851811199228,0.4142739497131736,0.222600449633673,2.0961781807834865,-17.86058321466922,-49.56095275382553,7.648080515326792
0.008,-2.0349865354103063,67.2909886287177,17.509876729127075,38.82503571315017,-7.456776253136266,5.057649673609532,6.400302523605977,10.961460051198424,-13.45025391638357,-60.56464248756037,23.718965919885427
0.016,-12.340991370291848,87.35154440191025,11.17052660931082,50.59941657148879,-7.81198344072493,-0.7112029672379899,0.5551962488743689,11.018489476115917,9.17199548973638,-61.830582350549875,25.612858198655193
0.024,-27.994691810225895,99.90848126165655,1.5694367006670384,69.4933122232267,-3.5958143132417524,-12.435164379868958,-16.64684509212873,9.874977388455568,55.18439311424847,-39.46188489149242,9.514276318877046
0.032,-14.720002376878128,90.9514981317119,-1.1623424494383257,56.94936349068036,-7.8681803085498085,-13.95359184259842,-21.779531449586433,10.057283515020343,86.62586722702586,-16.68304746912285,0.7984416680730069
0.04,15.773124263978678,74.75304201382973,2.0018597042124164,18.56309308370599,-17.133796058993497,-7.840563204609267,-16.9506587690138,13.370596180216504,80.61193194514338,-11.22455117443656,5.990571941680267
0.048,22.277281685027543,70.83402486740079,5.908709209425775,15.054392216587203,-19.24188267464233,-6.924922130182657,-18.70452202876683,20.299582911424853,66.27916823286104,-2.1826774499400754,6.9056134502928765
0.056,1.3537368747108613,70.85421489719039,4.933126099523066,36.18911962260418,-11.883830759017092,-12.796688381153945,-27.115125400420233,22.23783163921813,67.56859593101103,9.237024598128219,-0.9875909085896125
0.064,-14.870840267796876,58.68067264335157,-1.0092284107728298,27.765360861060056,-0.3953101336341491,-19.365944968378905,-35.7846553546508,14.703946843566428,70.17201895681916,-4.886674945233211,-9.715299944997362
0.072,-14.246497078209389,44.019007676829936,-2.257781230466896,3.8820926143277714,8.472358555676543,-19.163043295680076,-37.44048584361045,8.955173911608192,67.50121226117277,-28.794860604437027,-20.47284736330065
0.08,-9.171404308899724,40.751881321797335,3.9152361876143518,1.9221096797018302,9.821879969918728,-9.752103237283078,-25.44324060429192,12.680401598441644,71.49397668391248,-31.87939851075063,-29.635978211229702
0.088,-3.8686460124622033,34.91170906325238,6.176931941959784,9.560907490033209,5.853493277615428,-2.2502069288432014,-11.85254908210935,14.820670893570526,74.40600477555064,-30.11396649652342,-22.94030503259384
0.096,1.5004655311140436,13.693400537204118,0.8718807269847504,8.471761704523017,3.5155661306357624,-6.103414760655943,-13.10273738887678,5.165858400773606,60.54050335670243,-38.55797968632745,-5.292680996398642
0.104,-3.6645218255987633,-1.388832390410608,-3.2952327837328528,9.006892512676702,5.46026731288598,-11.45060382151335,-17.274270017047773,-7.435745515154673,37.924320716874185,-41.89078059351617,3.6721179581227346
0.112,-15.660107469472,8.23666008419605,-2.6278196216262106,13.594281525009286,6.509188390525237,-7.017224844789779,-6.828149174626471,-9.52503127934403,19.169483278179193,-42.43684912873719,7.031674990993489
0.12,-10.539340290292623,25.60734929940147,2.0689634162919495,4.7313447666840895,1.1883128093607547,1.1987627585211484,5.508570669797661,-2.2507802284215015,7.207970987932437,-50.331408065622284,14.674291872735115
0.128,8.577784090893168,37.543898557712524,9.234477015133123,-19.65210436164797,-5.579263017471387,5.356023494425694,5.484942458634528,4.0650884385765504,10.113297014236549,-53.052382023944034,12.82319238806537
0.136,10.180874130211215,52.34907628289355,10.27108892612943,-35.689422629256676,-5.198293047803267,7.499345770419174,5.89941248338127,4.880498215564665,26.950583573762295,-54.10610535410098,0.8979692111628348
0.144,-4.403836630028342,61.70651623724653,2.5874165936355116,-25.88781233795337,-1.506052835655316,7.460458101989391,12.259576506874495,2.93979950825677,37.944206042942554,-70.872804946664,6.001213226743301
0.152,-4.9486515084512,50.16800663845715,0.5469906210457349,-4.423003975361117,-2.7355617445617577,4.6323690485554305,11.984874831921953,1.5020305853285842,39.745001408318764,-83.48273090502106,22.28679691295256
0.16,9.386380591823954,33.0631634614381,10.022018967505241,-1.7712165973339546,-5.516297700727142,7.3002510693907645,10.561753917811624,1.9907780652328884,46.35544037243379,-71.60459604494345,16.26038715394582
0.168,17.55525663104423,29.42584970856703,14.774143203769727,-17.176764520492597,-4.857418978055457,13.086255606119087,14.696983224283905,3.582552519778368,50.02344478756907,-60.535854484628466,0.630191271593495
0.176,14.162644993920185,33.645013298868214,5.570908422235819,-10.849883739090338,-3.8924224901833644,5.01069017728618,5.174754607635115,2.7049134604353053,40.71859782180706,-61.82995050709021,6.474846952394139
0.184,6.144607018908825,40.126890831436725,-4.8041064085578045,18.43397714479084,-3.840888645731816,-10.17192407976691,-14.666649191721316,-1.666048656043544,41.84940162038402,-48.91732355948173,11.816453529056702
0.192,3.8823193174123,46.898604678304615,-5.88965837751637,14.767645299404737,-2.6703446251096064,-8.909701960168002,-14.615883035652374,-5.0200362632652356,66.34899386233585,-23.753772700354343,-9.065299626013553
0.2,11.25205051084016,42.19908634158671,-4.383614353488424,-21.727531205224714,-1.8556512557745508,-1.1177398192353982,-6.33638242857305,-5.873070012142115,82.26164721479523,-13.674939765710063,-26.980109592695307
0.208,15.057329769183273,24.806535195914012,-7.52238772152893,-29.49765726668945,-2.321124786116909,-7.074768628313085,-15.095272614050533,-7.951381573890212,70.67748775178225,-13.587397360524191,-18.078772163491507
0.216,9.850747083975252,9.542318515776469,-10.343959708711957,-18.528244542627384,-1.8982672807975616,-11.129287456433532,-17.898019107413937,-10.279981428346842,56.63315469314626,-10.988209187033364,-6.455273524566684
0.224,7.640527184724756,2.867769015847514,-6.1426935225008625,-35.95864195192093,0.4868995013800778,-1.4074261707378437,-2.991574877573258,-8.416531695400849,52.63899551746666,-19.582313446222713,-9.13687643401797
0.232,9.312390778345028,0.345612293615777,3.9999389721177696,-48.457453967773574,2.1918221865659113,3.8813343479709053,1.0253176571541749,-2.6808360363028116,43.50396783034608,-38.669972498068134,-8.373673201104687
0.24,11.041953093739773,-2.114964230937066,14.334918931134803,-27.846517786582652,-1.8430830249432313,1.8903189012444104,-4.290165770850707,3.5143759263543703,34.467990022794304,-45.0647214867072,6.577938327042547
0.248,15.081767911249058,-3.88598933668264,17.165507526864737,-20.99111512018134,-8.394347977892217,3.828945787845644,0.13569433217989668,4.321373914647607,38.909994925057575,-39.05453352246518,18.409407477708598
0.256,8.598700994510619,0.7331882042526869,9.596725512962532,-36.29818206230342,-5.801357053900924,2.9079898993476716,1.810407832763234,-3.905477274495403,36.879564036020916,-36.717385426757545,13.141405073451846
0.264,-8.083642753806922,7.920632599269482,2.5131485830397047,-37.45133458157085,1.8316279682071697,-0.2794453067687352,-0.14777536887657206,-8.568861643180263,15.306952533974293,-34.19110342537368,5.135272030852554
0.272,-1.9866740934380378,4.588684570640115,6.158404748449169,-35.40171348697828,-1.3563915236204944,6.397029819532563,8.846674314806485,4.074655031869922,3.5222263135582166,-25.252325912164107,9.203006581633119
0.28,20.1600063167931,-2.893794292154145,12.559789292611969,-37.41283018892446,-8.175263734998115,11.372795625018016,10.91772332059246,18.47366577523306,15.151335362688672,-19.849392944200854,11.303173578154851
0.288,15.029889682807278,-0.02369264782541708,13.74456082102154,-20.64482607574299,-3.652495001808708,4.659393260159911,-1.5211697138680826,14.672608368173261,20.098419332200457,-21.351134966761187,2.338606083631013
0.296,-1.2881387829762756,2.225819051613438,15.571421594279162,-10.30715118306658,0.48603704646078294,4.470959054365981,1.0075235871088426,6.4649508168875895,4.160203724457748,-20.935418272323812,1.5398155771020938
0.304,7.138396106125384,-5.444015290959075,16.96601131976089,-27.84892976717406,-4.684127072439289,12.931098836116943,15.282100510434553,8.868602254447277,-9.81692389240728,-15.695479047495974,9.831130878177015
0.312,13.551827696669307,-7.646677743769053,11.017255748411754,-30.236993221575393,-4.41927535567179,10.131750466304199,10.711043844555125,7.365156988869498,-5.519187783209564,-7.9943027516984415,3.6925275129276582
0.32,2.5229618365507824,-2.7958774822044545,6.523492620449217,-15.291187374738646,1.3277028699554843,1.5755341045035993,-1.8931271047637122,-1.9889489186877016,7.2537703067311075,-2.541812699099008,-8.76201366054959
0.328,6.342597281140306,-4.1717888876594325,10.019586188030353,-23.31492118403799,-0.9804845296913541,3.1725293796629144,-0.6012423333561968,0.24236385460574203,7.785126793962788,-8.376131188215048,-3.5024928418292083
0.336,15.392694638565416,-2.574521099518929,8.73156886495196,-26.155265296103437,-3.4570396391851714,4.234794599343382,0.7907745898441896,9.804254250987698,-9.713245069215446,-20.626447447228912,7.49118415799106
0.344,0.4618568915916747,10.108150757196052,0.15496188329771907,-3.356029447915917,0.6611153803106614,-3.2178195704155796,-5.957819636309315,5.327115765286494,-20.406727180118647,-19.625314753874235,8.159796137986895
0.352,-6.438198402738569,15.228677082631604,0.5815460899568292,-8.953912182417653,-2.7127314368515054,-2.563208092333299,-2.474135163439593,-2.7013968600606253,-4.563442368728217,-8.1160834547719,9.808911035580495
0.36,17.96162694373098,6.828424224844309,11.884044734639982,-34.2505846823447,-12.94478423919729,10.52442121740516,12.725574820267518,5.716308964928665,17.33420703103312,-8.57570101834411,14.354393943876874
0.368,30.813762014749056,3.016228995684692,18.367000036169323,-17.981046973543425,-13.56631582757572,16.206504475398834,17.53358797954157,16.095783680159137,25.180252744049223,-16.558870667258574,10.84697326148418
0.376,13.232936285252764,7.164420792969928,14.958013166833496,3.708499315431972,-8.001377539575575,9.063075876658138,8.912435023478702,11.5821769318379,28.836124005224743,-12.049113495301647,6.513506115352817
0.384,3.9826465049034088,6.978307796661652,12.160649637540168,-12.505549331479633,-8.440233662577716,6.375868560313277,7.01955502288537,6.72533390871732,30.256447628435893,-5.377786826292675,10.37127055540547
0.392,14.96385403019586,0.9097219303110784,15.44109500110624,-11.770334266445847,-10.505019110299807,10.50648558534251,11.999140841282214,11.098700474321246,20.84656575962847,-13.341789738096326,14.965492598982323
0.4,14.379016743748782,-2.2982066516427895,13.406904324131748,19.410705048806477,-6.811487823635075,3.529475560333531,1.5949341819601173,8.385416654099718,12.370376199705566,-19.44196408050906,14.329332905621921
0.408,0.6584512740822644,1.0553297894465612,1.3940946034887383,25.811162723326092,-1.7680785263711978,-10.30480457904803,-16.727705145429038,-1.9253414948654302,15.961506703749603,-5.815351760805807,7.412344292478713
0.416,9.538261240049954,-0.2714995665521996,2.504249108599295,11.36564804741571,-4.095548294286446,-2.2166943296394046,-7.0769251906318615,6.408796198450937,22.8554419069371,14.93406597491783,-3.6580416117618997
0.424,38.38368886695168,-17.81347014863976,24.98421676871852,-5.125976391924732,-14.030032966427882,25.107651115358113,26.093334586482367,33.56933891740929,23.79470784219692,25.790179729570657,-3.7981415989972693
0.432,43.278097173765055,-34.39152415474382,31.413012197742617,-34.971778380529244,-19.580678521964057,31.389695829555787,34.78699084343806,42.120690370475344,12.371206344249895,26.261514308744072,12.598804047741531
0.44,18.621639726603807,-25.19494107706117,3.3066403973222727,-32.76555193424609,-12.186812003831134,3.830935940335722,3.237178673402567,17.178967215658673,-6.595441458117831,24.425437185421288,20.801301738605773
0.448,-5.284692183040118,-3.6622244968630007,-23.296554538478603,29.600789042826477,0.6909839933599019,-25.390160159203518,-32.473758282879615,-12.80153400328561,-8.250566567224713,26.512791605759976,6.231096946014271
0.456,-21.897530359190696,4.3600053686741935,-26.170130000035833,69.36498027619828,8.827091540358987,-32.44124827494495,-41.00481421474761,-24.088473555034405,6.066240922574355,25.07751630499343,-7.232676390530649
0.464,-29.915088516709833,8.192513593935548,-22.50214845157192,55.35288249995189,9.79138719193671,-26.598432239456542,-30.993964816991273,-20.519234093210184,2.018445077451606,11.267009032085202,-1.7397363572251259
0.472,-21.150455580661873,22.467835698100238,-20.16048859365591,62.18060220231013,5.686293915555735,-24.05217177150422,-28.09541490199329,-13.611769911033223,-14.553611286667957,3.7295447922835727,5.014928514254109
0.48,-16.353798366329933,29.965235983506705,-15.825449185264212,82.80720943109701,3.822926013285293,-23.644387186455173,-30.413539188753354,-11.149638287464034,-11.790901727577465,19.298738154550477,-3.3638759550948922
0.488,-25.68992561202208,18.973941788006965,-15.581703304600968,50.44498531533129,7.885148635784443,-11.674605959622605,-10.569713044714254,-12.93986084571114,-9.368075692839735,32.27037350500014,-16.06496658359413
0.496,-20.598899893900825,13.137182358014059,-17.711984156672475,5.266697952271421,8.140298346866018,7.902130764629453,23.04706850056493,-12.281167656563804,-31.70914039902386,23.623353870452124,-17.32118453207896
