time,C3,C4,Cz,FC1,FC2,FC5,FC6,CP1,CP2,CP5,CP6
-0.2,-42.061898813012114,92.49108880333647,-11.118254115653306,5.000559232372605,2.6902226798676616,-8.970517561327396,-6.0580121397377855,-9.725851330560864,-9.506937810482944,-10.35286579937814,-3.480396426251081
-0.192,-33.80983594870489,83.60857185457061,-7.566511150671523,-13.220857824419879,3.5312512027086256,-2.3508126259614612,1.588836008355116,-2.602282353047166,-12.36585706644518,-24.4111546206946,-3.5920828364237796
-0.184,-19.940281060562693,61.865510542639775,-10.145139201402788,-26.048153990747306,-1.5950371814314523,-6.313462267383959,-5.117529468034922,-3.393592733200123,-9.709595169740082,-15.107568670743609,5.797677235610464
-0.176,-14.142123080001673,45.816126807857856,-10.920399785366559,-29.038315962490586,-2.296830462879046,-6.496557276530133,-6.562950942662123,-5.537797794691273,-2.662338612087245,4.234568301154566,-0.48507358821193963
-0.168,-12.268015826417699,40.223455071767134,-6.997655454648428,-20.333497904612404,-2.3048224270635407,-0.1824418909874328,2.797443725732755,0.41966679442138155,-4.467441781345836,4.70626030052009,-0.5362976955055093
-0.16,-7.4873665142193255,39.09225525185459,-3.4357970367098334,6.643229177532583,-6.622280056628296,-0.8463711042601842,2.8951865939457915,5.1746328667964505,-9.528705188739794,-4.751234434098167,15.622691346007196
-0.152,-0.762268025509624,39.70475627711473,-1.50812563187421,31.23764954718984,-8.356476005004867,-4.415687830210512,-3.5280149867737975,0.1603720405488875,-6.734799924006259,-2.3614651709288554,14.546173333462402
-0.144,-6.289611200078813,42.20795787558154,-6.760160318318523,27.557243175262048,-3.567524881926776,-2.5582543822225543,1.2636410422735083,-11.060467232704504,5.318672389093574,4.368688210321268,-2.6117796242951323
-0.136,-25.275828744457197,43.289923475913184,-17.64844144772477,13.654357981204472,2.431709178227169,-4.825727844772618,3.2679166868214984,-17.574079381763603,23.34415495488974,5.577991286534057,-8.055260549310821
-0.128,-22.711907007134872,36.29187858381897,-12.530694939535747,12.678842644180513,2.867238412840104,-10.840182448366804,-11.544186019590343,-9.243118871924448,32.05307192744069,7.144435163881595,-8.878597588819561
-0.12,5.578442256895998,21.021389842953017,7.40240361689138,9.566641754340566,-2.3523558386829118,-7.25481850858828,-18.817771885030467,3.5835991853869547,17.54479157586515,6.060681821003966,-10.481191122190822
-0.112,12.115447581371052,6.754855869414358,9.903348012149358,-4.513415639204903,-4.256573260939423,0.3882432315075867,-5.2941356710111185,0.9400726678091843,-2.6223274004657364,-3.010373475710251,-1.1538571429991769
-0.104,-1.6191384351398868,0.3123143449027075,-1.8375998435398437,-9.336989066722241,0.11692003490212156,2.1627369334727833,6.36028308512836,-8.62734258745133,-4.875729354682766,-10.699692600781862,3.756655224739453
-0.096,2.9893412601703684,2.3126151656613723,2.9790101690315614,0.42488621553764866,1.455897681346225,4.661911971637036,6.867981109500818,-5.799760974658573,2.359434493889295,-12.12744784575177,-5.584520359128478
-0.088,7.744852642377617,9.845134719843257,15.33861313901546,7.998218747485003,-1.945124481618503,7.817605612488274,6.637995335146918,1.8707999598974017,3.1423776800239924,-14.22803214812238,-4.4727346155709675
-0.08,-1.8352089824806483,12.474061726938844,14.268918103550654,6.566609700197801,-3.177898660899214,4.746024547688102,4.5610561810125585,3.9393818773507445,1.968524378881109,-19.28359956802635,8.705980717733295
-0.072,5.951891111637938,3.7147661177375264,11.03264185227792,0.1280685150214112,-2.875730047477555,2.2904471821902797,-0.29937945926747445,6.379562145505864,7.681415950130876,-24.258294079181503,9.249153977166864
-0.064,20.178492946603544,-8.028571080692581,12.355840233001105,-4.753360492422158,-1.6210218237671918,4.210276699703699,-1.5106554175740328,9.861490893799406,16.15875650652412,-27.124429744116743,-0.06100759530188641
-0.056,14.556655246284603,-20.891454203314932,10.843067113279185,-1.2659894322081608,3.1365746820566254,3.4213082297431194,-2.5286276355113397,13.034769717776173,13.975969790848444,-25.675318741525654,-3.045260684519258
-0.048,14.520436011041697,-42.16470156749993,9.021039395518194,-0.4749127161056558,5.942085795694259,1.6566917484331902,-5.489990098868232,17.744431028504174,-2.3266356991837207,-17.637177749400735,-1.322443154496977
-0.04,22.53401366783038,-61.15678190221704,3.75568717684588,-13.894727009131861,4.680043623533421,0.9433075313389305,-5.516968509963428,13.880342175422397,-16.87566802371839,-3.0719530934483528,0.01840251456098412
-0.032,17.08182335647583,-66.68312699982776,-6.554167779250373,-16.291720371566253,4.554486233411285,-3.3014521203795275,-6.553730677632528,1.3330649496191473,-19.377366131779734,13.905770066703939,0.5421028553437159
-0.024,20.434135903409718,-73.54420131100717,-5.618082800151927,6.47036367946838,2.145738057442584,-3.3562875958969967,-5.9868900109984855,-0.2608251830173651,-15.226028673033586,30.173996924878917,0.20029398340525983
-0.016,29.56768648004291,-90.3473123322737,2.9489234013128107,15.944595172674143,-2.2271082126311215,6.889579646870345,8.421696162866638,4.419196700815532,-5.334032638927192,44.86217051418155,0.21028321998860067
-0.008,11.978081178481089,-105.25670816046699,1.6664265324314476,-0.12027662310124833,1.833831836654099,13.222819324449684,23.14175375711491,-2.5068943786012654,3.338890089574468,50.16228909079124,-1.0045853492034926
0.0,2.97218399509666,-112.9538047746057,1.125110759542875,-4.579048509734337,7.812783922265724,9.301620797364828,17.005053234757206,-6.409370182033177,-5.272596262522971,42.90375606193769,-3.884326075789378
0.008,25.175772256068417,-109.51819374176095,3.062441959688762,-2.9571741914685705,4.7995031830133765,6.177761425986846,6.04094214010373,2.6416035013449672,-16.030955478498473,34.94330800141046,-4.263019184419447
0.016,23.640565081213335,-96.55121654154475,-9.754408709237321,-25.593497256947288,5.47929300286002,5.800627486751635,9.325111681478052,3.3670138042803486,-4.252433598017069,25.866331521797196,-4.203937361783811
0.024,-0.5131294689210085,-101.67281898193924,-17.267338184764565,-42.553716169482534,15.971338805024367,2.674669654591075,9.3529974553901,-5.548437310576597,8.125114984720883,7.483940262913613,-8.202116143035873
0.032,5.187317384256656,-131.03294415850752,-0.9697303559506928,-27.666684458452764,21.095229007976652,-1.5952171351543227,-5.600910154771792,-6.767755614238642,-0.9398717254348099,-5.159260430307733,-12.302914816831015
0.04,22.442028905393563,-152.13569746368725,7.415249604292001,-24.273653273092197,19.09292131465331,-2.5909126704403125,-12.634687440212518,-6.3446637263827235,-9.49526399688407,-6.527166164678331,-11.049563477241072
0.048,23.652501831388285,-166.79294512227176,-0.5770186663084008,-50.16283536194232,18.32522125074385,2.2003973062763214,0.22748012914809468,-9.675819370106055,-11.108471559795664,-14.219635671181058,-0.9882336276144142
0.056,26.565328307234395,-189.72959635075097,4.701306777091597,-53.93510278858498,14.934787254230155,8.04132720291403,10.62885906017922,-3.528895548108825,-16.850999504065047,-20.049672645314242,16.783987611873386
0.064,28.128557142985997,-183.07506323671586,16.46359620903088,-21.022080632572898,7.476198580531052,7.191214701209396,5.8528759253157485,12.052433654079264,1.2517945583887615,-11.41262379460231,28.906687947699698
0.072,27.39248315046027,-143.7574990160784,16.187503398130282,-0.49848721756049025,0.6459707374495774,5.693201368743896,2.4639124824848775,24.36072692529804,52.06043959435296,-5.659928320922969,27.32830556796738
0.08,41.16120077374638,-139.74274739241412,17.291034772561268,-4.492586282392765,-3.6836356161589774,9.338896866571654,5.610295409315224,28.02965315186399,76.86278705015324,-3.416369284851534,22.623884031549938
0.088,44.149126753922886,-177.73104519557822,21.047315049906956,3.795942522133596,1.3487455992224886,7.412455674207701,0.7084103811304179,22.402921250246422,54.57452169272069,6.0991722395609695,18.586206714988403
0.096,28.28056689400899,-209.63106916269012,18.582334975766898,25.15532428152345,13.620741658686443,1.468363116573913,-7.373487859786715,16.39168808699249,39.231617127291116,16.93783783467421,7.340739189463338
0.104,41.96153646855303,-242.26264237883586,23.278818639959166,31.94960675521137,12.41738452079399,6.993002661501635,-3.129003084221673,21.671990718683876,42.913598442775346,54.758697420491984,-5.535134189261419
0.112,75.6164853529818,-269.4408143238233,29.983092880845884,31.55518084771962,-4.959528389411959,15.316353800501203,4.439259139305746,27.52715846482071,18.131426347807786,143.45100261409513,-9.539514296189758
0.12,74.76247946055116,-238.04683642110166,15.681514200888596,40.5907190059269,-19.70436053623745,10.373269828765743,3.3355275726415843,20.14599232259304,-40.90770182140554,236.78727208430763,-7.604726279660362
0.128,57.23707868556859,-177.75538731748534,-1.4321103331839522,49.672942861083015,-30.125477188326627,3.1722784035050773,1.353222540540225,12.550719033887496,-97.29845279896475,303.13029337206166,-3.850815087572778
0.136,54.99725073319206,-161.26342895223516,3.753213471109034,52.58647247330336,-39.061140700117505,4.925070348660692,3.342660146689253,14.296918550608634,-135.24289571755523,351.67627649644146,-1.5188559593722006
0.144,45.69558743013371,-163.30770513412727,9.286533512223324,51.786536376896386,-30.86050522631578,7.762250605320124,6.3504912080022144,8.795400942144967,-154.1096812741275,336.2090545509092,-11.31602479588789
0.152,26.120301913280578,-146.35163664694937,-1.0226535892038204,49.53377663110157,-4.158264757757249,8.294110324637847,11.741638523060896,-10.570221261823985,-155.22422273769715,232.41560847240316,-32.47098152777788
0.16,14.863320300856206,-140.33427363828633,-7.413070975299065,59.04892411259265,17.969429751762547,7.096350286742814,13.222614848862861,-29.634175899185205,-154.42921211151696,137.21157061978053,-46.81332468698874
0.168,-0.45667984547706914,-128.90511425163297,-8.985194376114764,73.38290639869889,25.105462214503724,-1.7396660773826194,1.7214672248239133,-45.83623900310665,-162.19706676317975,117.18674313560882,-50.46371897377021
0.176,-16.470886084149136,-62.37851609912694,-23.00497420860529,62.91435206113589,23.057760517087328,-13.017196510887905,-10.36472745395373,-62.63776129138642,-175.10530730716275,117.81171866018711,-54.25460071624541
0.184,-6.020779403433334,16.713002488068575,-38.57606218071903,48.2249358506709,13.424967188647253,-15.21683445364623,-9.304260429940118,-67.68198303700107,-198.06324350256804,102.12055490429272,-49.82568827866037
0.192,10.000149728044045,51.26695304724507,-40.66509046314822,72.03309149020858,1.7940125195820797,-15.606902925324693,-7.897252222202925,-57.90471444936008,-226.77052243680822,90.44845518148085,-26.710940317227667
0.2,-6.558864259923631,72.38409528016831,-40.144005147895136,104.65136582885442,2.1325029388272267,-21.383588405948352,-13.025002842356797,-51.958619614478245,-236.0818156105021,69.37983324825953,-8.285686640346814
0.208,-33.83387483627931,103.41359825258237,-40.43705072056868,104.0004314941542,13.770832351358411,-19.241007915085962,-6.775737534182243,-53.569232520013934,-223.78249800015146,19.996183247660525,-14.193413214115225
0.216,-31.2320797223586,113.96733951482493,-30.657012193544894,98.79053497742406,18.364228472410876,-8.23484511744449,6.060664602916947,-47.59665285804368,-208.36874459343323,-14.702837921335558,-24.819936943716325
0.224,-8.413383023054857,102.37595087275014,-18.884638539352405,115.12778917180381,10.500229325217804,-7.189033553587051,-0.8609123051683949,-34.1756164439269,-185.12135467598483,5.148591985924594,-27.307176392838468
0.232,1.6906162016255823,81.37325972611634,-16.76935069629913,129.290828075582,4.63351207569616,-11.788874047351214,-12.778299990858821,-23.401501666866587,-152.00769657057992,53.39095764929547,-33.35092592755599
0.24,-3.0349684214617443,33.6254728004773,-13.48299376933743,130.48278888468187,4.752582146973212,-5.2673622829837665,-2.7715896254589603,-13.914948302364166,-136.7122609405798,101.23514414724723,-36.90652449177114
0.248,-2.2699596493832215,-25.953686696070083,-5.739125048032393,132.15151979510654,0.48301896726025784,-0.7300297714669899,3.3529412387976256,-4.802005459351505,-149.5854151913892,157.93736592065346,-28.11766557291858
0.256,4.434806881989374,-47.22268041381534,-9.587279716056027,133.36207917684754,-5.720345007209729,-9.857816608569724,-12.08895467323807,-1.7108088195627689,-167.3693156488426,210.71187976687594,-23.896548413837003
0.264,-2.587879443374496,-31.048710080525524,-22.102274777841085,122.04850781464953,-3.4206418806810324,-12.261640363221757,-12.322100319830348,-3.8510105766894087,-168.16377150852537,219.6067433209994,-31.60440368410416
0.272,-23.299154061407837,-13.370886499438814,-23.30618963643846,96.87324020995936,4.673032350426756,-2.3476382499704114,6.892056051723722,-7.3773696803223485,-143.051890406129,184.6099585630065,-39.370094670608424
0.28,-35.4792032326266,-0.76914016371659,-16.38541411612183,78.11351384868057,13.1156547721686,-3.25667453592914,2.3000360171052594,-13.78383214274532,-107.36152123397105,137.30687685630016,-48.78047495004984
0.288,-33.035216632303715,5.598326315853214,-18.30959577479484,83.47806087371472,21.79903450564781,-16.762669954472422,-22.317443721931898,-23.455505910909437,-95.44416978185068,93.34066458318915,-56.935875970274246
0.296,-29.580193636438626,-3.7594898643188706,-25.21152653149388,89.09114315397811,25.431111487752123,-21.754007647262096,-26.337754481681532,-31.003057917144858,-106.90985015206995,59.4049946758576,-46.07900098947007
0.304,-31.791592532359896,-12.313225972197703,-24.716818299918593,70.35513544541062,21.333049888010574,-14.880154404742598,-10.193940000048997,-30.939875970429288,-111.53797155802796,35.945418292364586,-21.368911428256812
0.312,-39.10603385825377,-0.04349512768182795,-20.947127037085632,53.562509310851425,18.195755135498544,-10.259589712671076,-0.6806082969877703,-25.395742917212374,-107.48896680870685,8.618155506110323,-2.66357376540562
0.32,-51.0064027433732,22.79879869094145,-21.955710946558536,53.304188739039915,21.154914531606924,-13.448649412983258,-4.112005642166996,-22.53082758047652,-99.9814160486954,-25.073111067978804,4.603151863017238
0.328,-57.07396447888567,43.26651628176059,-23.69369907573966,37.34182397006248,25.52376603470473,-14.397208456862888,-6.816933186902951,-23.18007623738895,-75.206019521743,-49.08007033042983,-4.657607557746244
0.336,-47.336823606982726,58.584939784486934,-19.45645880006875,5.6107662876683815,27.095615302190172,-5.11957352323637,1.1063258794633142,-18.895423972584815,-46.04508063778886,-55.61367523439768,-28.392809507002116
0.344,-34.77033558312338,59.88714409129272,-8.866696043716555,-4.941337281213845,25.434158598042366,4.16532879998914,7.970141511705596,-8.12475617270614,-37.67154873474486,-47.412591318272135,-42.39272543703909
0.352,-32.01030694533524,44.115722831351896,3.8134184960258493,2.4101070701135536,20.980702553673492,5.391773677680204,5.180113709364466,0.4943211429041068,-34.17584717275584,-29.22092116719908,-37.14216347727937
0.36,-23.720289812313553,21.27346472484926,9.326284849663786,3.5089509098218152,14.044914041286816,7.970720972662918,8.704722562009954,1.1795902656683157,-18.973636352836525,-10.803593737916158,-28.084555937148263
0.368,-4.439320847479613,0.522280220640345,2.261156890445193,10.030618342498313,7.289492342991984,9.217743967436494,14.153968144852051,-3.2996013807405404,-8.053460070735879,-1.4125992396326523,-18.934935781414136
0.376,0.6365748841885681,-9.35797938114148,-3.872068357471003,37.26380376743012,5.257434718534549,-2.3246995987704495,-1.9356571127277633,-3.480212115521407,-1.4542190153850751,-1.1465045968320025,-7.186104977270937
0.384,-7.371937592494174,-6.297184084368203,5.416675474441645,63.31044191516355,4.553186028311479,-9.570014765060264,-17.14188131130898,7.288999752930294,21.610491283801075,-1.9229533945649346,-1.5654680728340333
0.392,4.2723222197739945,-4.697479045014891,15.76399216761764,56.69563206258814,-3.1680787745154064,0.9754831296150208,-4.928170140051536,19.986320818736953,58.31221969627024,2.9146299241893887,-0.6537450578865383
0.4,28.685265926629558,-10.720645757178449,9.565832253206818,18.980437684966702,-13.826733823570196,5.951199015777014,3.11214115213798,22.290215637531297,84.05316696465209,8.461574200497681,7.100885021273225
0.408,32.574008670221176,-13.105555026679813,2.693702498038744,-18.16578603697547,-18.399726730672818,-0.3565179695979606,-5.391103281188457,20.193463479310836,85.26349339171252,6.304911312359962,20.18175553903541
0.416,22.85125203327957,-14.043250398396516,10.138556716109955,-35.84440832521508,-19.158029292564517,4.87634116992468,3.079711852277014,23.106002403658643,79.55936138764916,-3.7372905322934087,30.375798052268657
0.424,18.264449121671685,-24.882875392852633,14.338603107680195,-47.00984239453802,-17.064501601201044,13.108611923923815,17.023156532869052,24.281333023362322,94.98993429324739,-21.070296739686285,33.206115641597286
0.432,11.630352468775113,-36.1379284267093,7.384201128676009,-66.97794764310827,-8.046652044370997,5.818801507172525,5.412088503937421,19.33019812871509,119.98794499071012,-43.07931903507938,24.837190274434928
0.44,5.650497697570661,-35.21031834198051,5.959441923393841,-91.99916766041143,-0.02162052748608125,1.279407209113151,-5.181624235469597,16.29787865875716,124.22451069452525,-53.86285704735001,9.703025548020138
0.448,14.058927349524222,-34.07775781727659,10.308174059708769,-107.12418021346966,-2.2920422381102017,10.208656504470014,6.325712567872703,16.748484797491937,122.64144185808465,-45.241549407569615,1.3417961522510995
0.456,29.98061719663234,-49.02755701333563,12.517580741101895,-98.91312841906212,-8.77076354714182,14.37830814098553,12.696867957985278,17.1701198107581,134.47957383303716,-36.51624500845258,7.049417963274466
0.464,40.63743032471298,-71.348510379644,18.999449330146412,-75.6729092672087,-12.736900311645476,10.85329793475158,5.902196372798585,18.452504550865832,124.15527383740545,-38.648382855408165,22.334023690936615
0.472,40.21352307176845,-76.95324980030036,21.88547245630751,-66.98512237915116,-14.661100743440624,8.511179585467135,3.5618979287030044,14.964539710370904,69.8800140201584,-33.76511482364859,35.99628169861265
0.48,28.5754666134711,-62.223470182640156,10.097830551086206,-76.31481096393578,-13.360239475447894,4.125725893224165,3.4493989616641083,3.4172415297119945,13.925250071531373,-23.386036247309317,41.1596135310055
0.488,18.93696427273755,-53.89221138548543,4.238709135440502,-72.79552781178211,-8.848836110737034,-1.699737118877268,-2.8221798432902694,-3.5617908940427863,-7.060658921089139,-31.214200544346316,41.166990960710066
0.496,14.876695438434888,-72.39236546508364,12.725039861836041,-55.80487806382118,-1.3157299371064404,-2.8476542934336275,-8.644258774268444,-4.364071244983684,-1.1092297332449523,-40.10206818627254,31.107269155135477
