time,C3,C4,Cz,FC1,FC2,FC5,FC6,CP1,CP2,CP5,CP6
-0.2,-20.098748232258828,-34.12049049848096,-10.63624757353127,13.946704720810967,14.312229030512981,7.764486284155993,16.78151768494744,8.515736726965805,31.822196539991978,20.155349667246455,-22.364801896164952
-0.192,-17.77002378091018,-24.60833199793667,-11.21298045128497,15.632597620762931,12.58709970194515,5.931241495208235,16.354344332987147,3.1758407779219744,-1.2057774803893422,-1.825019193785268,-7.866923407347604
-0.184,-30.10947162534414,21.40919984630369,-22.791804317075155,26.647289806500844,11.716828080989567,-8.187385384127657,0.12774216508732913,-10.273834449273835,-10.256770368805121,-19.7417701854145,0.3350951484139782
-0.176,-45.78263792600401,58.34947363993299,-26.257821014307616,23.859613867759464,11.634624326719495,-10.704338466242675,-1.208105342660403,-17.010727766775485,8.229587566408522,-20.36107210555801,-5.521556564451
-0.168,-27.059762893852806,52.09556991588327,-10.360855837981218,20.42926836864666,7.619066414064258,1.8028785787406008,10.831472937841935,-9.451474265484629,21.70679993122024,-25.168342182182077,-12.29829117930304
-0.16,7.877534352736107,19.683046120682732,4.49584004472235,22.4384621473644,1.5304147630311191,10.307773375617131,15.411493874939431,2.7180154662288114,4.164947952691053,-29.921384362939097,-6.419161926330289
-0.152,3.242419189234994,3.1399840542233766,-3.669509816494908,14.667394087905075,1.4354909629994574,1.8136046123095115,5.733883672998044,-2.063704078402202,-21.240329658826507,-14.327990424703586,3.9511846932841093
-0.144,-27.982669238049272,17.627963664612956,-19.608939758792342,13.164488769854596,5.808713793368782,-15.527069020824499,-13.039557056969697,-19.43716812791273,-20.56310570043374,3.5984695615940185,5.294108636006917
-0.136,-26.517439030846262,37.85244373012501,-14.219560196037124,22.023721744760767,2.172063174687062,-14.981077762049368,-14.803219202559093,-17.560465763027562,3.4567507645731874,5.264793622304177,0.8355146713694837
-0.128,6.35690067766058,39.33037993185182,6.962769646008685,11.15659737665869,-10.67466412941872,8.736606534706771,12.53269442785632,5.033509889676109,24.539923320863352,8.353178815911258,-0.3816662565104827
-0.12,13.71487005415955,35.56797534564697,11.691755134536225,3.325651828129583,-13.892686736776486,14.903776064325982,19.400396152493023,13.33497287484938,25.60093727103538,18.286385495842648,-1.5094131646514075
-0.112,-14.53459328359181,41.18354219431981,-5.221965372872914,28.09515018449272,-0.3293025204136928,-12.596247198253948,-19.597978271416995,0.17320512271620706,13.929295387863265,20.90579378161095,-9.777779153600337
-0.104,-18.595994813036473,33.077377869111,-11.129111028493487,29.294510178787142,6.253429472184429,-24.504030957506895,-39.52922131164608,-3.1563316283297045,7.769101810196823,20.922277275475075,-16.790687282956164
-0.096,21.170080112518185,0.9677836577629655,7.699145939912055,-13.7396293346641,-6.8207923950409075,0.39218149741540775,-8.963429406584272,13.39011397199076,6.6449023805168785,24.139922667879873,-8.620909002748071
-0.088,39.853509400890545,-20.70470128741467,20.43491288231799,-28.040962832173584,-15.119917537121763,15.49974264843907,11.944366453895377,22.27283645390257,-1.2153113052046634,22.60080909266175,4.725581143698939
-0.08,11.192343304314981,-15.59478240554759,7.353812054203625,-6.5464557233206015,-5.02427840349519,1.490155012656999,-2.1715478264271204,8.689963442637753,-9.580314553427957,16.491610181520954,4.939016628239618
-0.072,-7.177095541064256,-8.056114956451491,-7.354386091238334,-9.465082096330601,2.9770004356206554,-8.106469139200751,-10.502734008725255,-5.848832519950426,-8.836025943198504,5.831545165168456,1.243670121037609
-0.064,7.70191538478498,-11.237749035082278,-0.48868552233770685,-24.646933369098335,-0.8483484550478143,0.82624304218159,0.6701204514501137,-1.3124970757165388,-6.7991666801879544,-11.26467643401737,5.719719529408785
-0.056,20.952326904752876,-20.361824439997903,17.78261581274665,-18.062366516228476,-4.125050068985093,12.342344741695445,11.409214913839612,11.662683366233718,-8.17483695602364,-16.644800179119628,5.820181114449643
-0.048,21.006945842765404,-33.968100633686014,25.63343943886172,-12.817535280414825,-4.027984909425286,13.92589622505116,10.7124238159723,12.08330645109717,-7.304022866691025,-1.249729177185536,0.6191263573066762
-0.04,11.672528524733499,-40.7676849173157,15.429463793703114,-17.624855070060825,-3.637933041097926,1.8971492514509922,-2.870969660651423,-3.3171862495566593,-6.862472289615614,7.721640821000968,7.119146445302578
-0.032,-5.695089859265383,-30.36888475857044,0.861655349116198,-15.019792223129642,-0.0008446209198139654,-11.110085107502828,-14.918829822534715,-18.387846247657045,-12.031208408641977,-5.787825947628448,17.15427895778288
-0.024,-3.8975458786539385,-20.930945518807583,0.2576944023886,-17.826191576776328,1.7588767080762262,-5.330926210373151,-5.551766490261641,-15.951552610774256,-17.40032007760292,-20.023627542531493,13.963957209015724
-0.016,24.373750409295383,-29.158669959983474,8.982339717463613,-32.61595524821604,-4.2783821261346455,9.588935575415139,10.813419263619133,0.5564071085522492,-16.00067036485798,-16.176009853536687,8.630802724597936
-0.008,36.38034298688952,-38.1592946319488,10.062420313858976,-33.17191970742005,-8.08559047489901,8.322737258200146,5.025814405713982,11.474838690358112,-6.562881224777639,-1.0381648779498247,8.58796165394074
0.0,19.725604958140732,-32.24716492923313,5.304002450607207,-15.103771724600405,-2.9400614454228213,-4.498122951488403,-14.591546153204488,10.690190439730463,6.168770953323914,9.25863631833493,2.6118448002077423
0.008,14.0354276756492,-28.951164622968733,5.961667847017208,-2.6143966115322725,-0.11845941241876246,-7.295402613573808,-19.42088911921152,10.397976330147484,12.283461692696193,7.772060516519654,-1.7494165640132333
0.016,32.799474622843924,-46.709068693774924,10.260784216773464,-2.5094131568882325,-6.86231947071571,-0.6655042421390478,-9.780315345141476,15.060563730078787,10.201972054732206,5.2681243627871925,10.383114485928685
0.024,43.62014419240077,-67.59086725003282,11.144415744589953,-2.433792086165582,-11.81850083853208,0.2511263769860605,-7.779342649883464,15.67823618360948,11.916879238409996,11.063949218950158,21.486862258554556
0.032,27.396132778266146,-66.02998041222507,10.001488551594036,-0.01312217416336735,-4.70816737148429,-3.8908883355251622,-13.85624273459148,10.563424628293587,19.66051100960783,11.959940030319117,10.860626015068128
0.04,13.903904785122547,-56.56380187775157,13.869515996724665,-3.514752843113969,4.1481276915919265,0.4846328997823027,-8.65545797132989,10.58144990401579,14.01566841736494,-0.9163860252148963,-4.213836986296213
0.048,31.11008323982461,-65.21335224753504,20.37177186792803,-10.398435740014532,2.4602257111535804,10.087335917612775,2.8802793227422603,18.498843932085553,-14.732503518701623,-11.43320475214924,-1.8484474180111112
0.056,45.81505521236818,-76.7184757638971,16.010729624251383,-13.274661422903776,0.5935878335162852,8.273081706804554,-0.09257270108045301,20.91355906776513,-39.838805962675494,-13.777522171293866,5.367503491948604
0.064,29.467639343500412,-68.89394716970313,4.78332312492728,-19.62311162149403,7.104373356310751,1.1610136210237354,-6.6003377019641984,13.159691454190419,-33.01165168810533,-21.55490327276513,1.5572494613178227
0.072,23.850656363287445,-56.89474402893567,8.211697550635078,-26.468632173820755,6.484685235577327,6.164506315271488,1.9395581639426986,9.679386240063,-14.486144452471674,-29.955944074501048,-0.5075063861919037
0.08,45.06874660894354,-53.34895930745384,19.819100379310342,-8.732920242655833,-4.41846475887336,12.058019220498364,7.691385840784097,13.134681968808414,-24.3674504525778,-25.149031461385068,9.533399282813784
0.088,45.54275809338286,-47.48374215868939,15.811692551003418,22.61087423719374,-6.2977197153429305,3.963277875543158,-2.24963690807533,7.441116681521596,-53.53071013259661,-15.735487274216505,16.814522339567645
0.096,29.11230504128378,-41.675869682998446,7.5036581284697865,23.534298546086372,-2.06949399772442,-1.827507335720456,-6.130251278822795,-6.44454054951576,-60.234207915440386,-7.827794153727885,12.728883618731565
0.104,36.052294054856475,-42.588163885429736,14.789523354588654,2.651979756166829,-8.75665892829481,5.871450334632769,3.889095112234111,-10.569868277553873,-44.25239327520293,7.8029766587558775,10.115554948177659
0.112,45.35026696728715,-40.05578528473261,23.891544418477928,2.546765561404042,-18.07012255629837,11.626500118199056,10.437254553946147,-4.319788502551015,-41.087308738830046,23.075478110228236,17.920212771864712
0.12,39.5292495392365,-36.1562131758603,24.401129427707495,16.886515511865753,-20.30792912388147,9.509533080299821,9.139241619104846,0.8070280618000825,-57.251229127640926,26.015051107312622,30.559400262504173
0.128,46.61977900864008,-41.95194767439856,27.478484235498037,24.47964830745945,-24.438284765916805,8.683230413604846,6.745058239642835,4.357346227797311,-67.82446279475029,32.88660154099929,38.46105029571189
0.136,56.52079877759356,-46.89504099967762,30.644586176457288,35.4565571858032,-29.229492075386688,9.232100969725863,5.082758903629673,8.7022055250396,-60.27578578671247,53.2239459324679,36.83082187330615
0.144,46.386102585945935,-44.49379370946431,26.041501864048954,45.05657527210904,-26.91889010579978,7.520345775998087,4.296646166865138,10.832037330903646,-43.23596372158432,66.69461084627467,30.79823889571258
0.152,42.83281439087062,-48.761498712430296,23.573977464034485,34.725648438645166,-24.33500621090359,5.603006746611393,1.0194437885251526,11.87253685568799,-31.349411015359458,64.89274317724903,27.558332653888403
0.16,52.847515074771444,-58.73922109469886,25.375567656570755,16.108558556071984,-24.46476353053543,4.337941038202939,-4.657679613550449,13.545647045961278,-34.39943837973016,59.528627801825344,26.661812034835393
0.168,47.741784766713934,-59.89826351030643,18.674130186032425,-0.5245912696160508,-21.455179777373264,2.920035166027662,-4.169857128992515,9.971112565693161,-43.26493972123716,52.32659760330647,27.88587655797138
0.176,34.818809922907164,-55.58724874331743,8.197597534832873,-22.73513561981787,-19.24668046480737,2.3012209862814403,1.3960907368495783,0.8046749281165511,-37.287067667840965,46.02276408851333,31.262205469224412
0.184,34.45484370317959,-57.701416608490575,11.397290508552791,-36.78005925479006,-21.323070135562034,5.583066689858599,5.673196521718541,-1.0737355716480212,-18.50062346058069,52.45929253853871,28.68760653112994
0.192,37.930170552863295,-65.86867595425183,22.84774613812082,-32.05192926726986,-21.238436360088617,12.708977427697299,11.325811509688707,7.919733224873545,-9.001326388415162,61.9816944644484,19.707402305862956
0.2,37.45763722878571,-70.97812381172113,20.670406941812356,-32.35773876589943,-17.791642159906658,12.711632241884555,11.468939078389509,11.106689100519583,-11.664139050343278,51.90703136027557,19.02468113838491
0.208,33.9596708926998,-69.72539268420851,6.425217073095593,-47.02466678966227,-15.126869618873348,1.585891566349022,-0.5469808123718342,2.1070232938005544,-15.498464393240354,26.4151771083514,30.820042368110165
0.216,28.898738362081662,-69.73900301682598,4.819250657722667,-57.06441535907949,-14.200701079520714,-2.087239034516689,-3.935224397497939,-1.0962881556612827,-24.6716724453211,3.0505029557180947,44.039759686758366
0.224,29.116937073781052,-66.75557782043388,19.011646058693433,-56.70218285853042,-14.850660090280488,7.148104353318716,7.344370487500925,6.951491680788381,-33.51915499106756,-20.62035565489281,51.22215679921934
0.232,28.990531796736917,-42.46863429235942,24.96785421386832,-52.046685784197585,-13.18421875756519,7.924019054035264,5.7232092419112615,6.986895473356156,-15.272652643259137,-53.16307436205507,47.10002049255651
0.24,19.239590173434863,-12.357141291968539,15.570145290540804,-52.37756738045943,-5.646175603739301,-0.41838837944912605,-5.5835588010380315,-5.183399960017419,18.797349143751585,-85.53294541777169,32.99650411757476
0.248,11.69124114204984,-15.637703330927,7.824725065685157,-70.08337383715202,1.2502636448751785,0.7511181790652841,-0.5272919981947694,-11.475688277799573,25.22156411562375,-102.81388584239534,26.963160202740053
0.256,13.601076482166967,-47.37641110334906,12.358115417775739,-89.141835333833,2.2669107006498366,6.274965192870021,7.1571641996364574,-4.296966609911661,14.893672998089745,-105.7379068789831,35.530247140270774
0.264,20.173789082837793,-77.13982808640422,25.830494576954464,-84.09133157130356,0.09474281373443294,7.930417340423322,3.735396102977951,9.28521679627222,27.897811702138405,-100.90780599682529,42.43003142360616
0.272,33.340020994247546,-95.1854712772305,33.350170425296575,-75.03971229835196,-6.44077515382887,12.74423527360726,7.9083454615382305,19.5516448869904,49.31871304889388,-83.33358897201452,46.12058851105753
0.28,42.641491734247424,-87.22098237727732,22.15412652299485,-81.55781713787712,-15.67494380526032,12.481120542676306,12.104827344857952,19.623120725288516,62.705040592104154,-62.33368546439808,54.53591558746184
0.288,36.59727920893037,-55.143380775127966,11.247739691835296,-75.14327445041074,-17.319010269816367,2.162316579441657,-1.3326331087161938,17.891705699449876,97.25483141077018,-66.03238095495472,53.70332032562403
0.296,30.66639121423107,-50.182502507669184,21.40666732164868,-48.60060908121798,-11.75527092268832,1.9021940954812449,-7.3492497002179356,24.155322960373802,140.5864744849636,-77.58888076167625,38.05138376273041
0.304,31.683372775877753,-86.17537978038995,29.03830595656392,-35.28922826659119,-8.294722692921313,9.366655634254979,1.6675272134409653,26.741190221075282,143.18199137506912,-51.16113304937613,25.72220858400708
0.312,35.543951137681915,-117.29265794028343,19.66866402857025,-36.09433879119915,-7.894331771237341,4.6480544367746965,-4.318689247757537,22.176540347290672,123.00994739018924,-0.7012990316181553,17.595470639511166
0.32,51.09942249427993,-143.10237842447205,19.448223352536363,-30.240197028127234,-11.607080081836068,0.9532137162236767,-14.799369079236353,25.281458677386887,120.97713330342114,50.65452161863381,6.115345920438101
0.328,58.180620276551515,-180.13971568007804,23.09768615618202,-29.051822062284614,-22.886630366666715,7.5304462493131155,-4.427426588492902,26.920345370702464,118.16628668789413,137.8681542646857,4.9314543539263465
0.336,37.33721476294878,-186.03654028374643,6.208382189238787,-47.13898280127008,-37.60286694548247,4.420388923797713,3.134607025335168,16.10847911978236,98.39514918719834,252.13173904375572,16.838718193315696
0.344,36.47150775027347,-152.54317445806538,-2.912503472523885,-70.2992247060791,-53.270693048494195,-2.2703583885506564,-5.035453180436884,17.559512666753275,77.06342382631522,321.2637288220412,24.115587407976204
0.352,67.85207581526396,-130.4567367860917,13.279303124878219,-76.15781591766421,-65.01122209444758,4.080604008207266,-6.292588844384071,31.379164666839753,43.76030442739934,329.27604034331466,23.90963271865515
0.36,60.707116427438564,-115.51072893052473,14.408815185389694,-57.36562390950562,-54.41699767205216,3.4271191288294744,-5.763630309120138,18.063734476662933,-10.037438914713443,285.8909589428086,19.761173860863583
0.368,18.443123071345248,-82.80991806730016,-2.394509310844253,-33.310897938923375,-20.882580535334053,-8.435599538993893,-13.75685532677598,-14.591226140104617,-53.62047905532903,169.6832154002583,5.686470986193195
0.376,13.254445385571346,-59.93750796798334,2.5125357113503726,-28.71268747383129,6.183541713210655,-2.494617772928204,-7.5620428389520695,-22.37666004721701,-71.57307693305881,27.714039408460554,-12.188032176365454
0.384,26.7137534632266,-40.085729263539456,15.043941597119764,-35.47458517358561,13.12651316800934,12.9813904418283,10.246133004737114,-12.748668313384991,-77.08493972589672,-46.08215247803677,-20.449626029218873
0.392,11.514659485283255,19.752633390033413,3.269022714795111,-31.79679057338989,12.360895055890984,9.471852183927195,11.24227975893873,-17.79229982311218,-77.403161499749,-62.5600081668274,-18.949796394137486
0.4,-3.0895510298125184,89.2714590939561,-12.349698921827855,-14.345952596398881,9.50887363480837,0.7984359708385491,7.400533958968056,-29.61080753402773,-87.85674646267707,-88.8775166800939,-7.627757445613708
0.408,-7.042355266266375,118.7652350355524,-16.486873826175106,14.518308970194868,5.6306643478284855,1.7658725978089862,16.516621758916386,-32.12795316009724,-117.52084914594295,-116.54758790047242,14.71075423173038
0.416,-31.61300904963503,129.87564467799112,-26.24879719379103,47.28682835071734,7.697912718628359,-4.6712306383671995,16.058605366621887,-32.65635658720758,-129.25057819808168,-117.45006284596276,31.265796757513243
0.424,-49.47676732134153,146.91559423190654,-31.416295386967978,71.07804311974071,13.61642481254528,-14.655708583311934,1.8576087773551586,-31.144906104060244,-95.99601986189109,-125.88234201719426,25.303271188460172
0.432,-27.167415880510422,155.0735203838033,-12.850194598145206,87.00345520468181,15.230630304073673,-6.744270689325193,1.735167496220175,-17.088345955336994,-51.357017966334396,-163.72085361355695,7.844983945805533
0.44,-7.681715735337033,152.08014775604164,3.4372661063021406,89.27707667188454,14.136208606816952,5.228458448715364,10.343145178547063,-0.1286400562059141,-22.15871114585353,-177.78276317144213,-4.492345434323117
0.448,-19.100215922482203,142.46806250511926,-3.632082674032278,69.28562262979597,14.976169840042344,1.3392082307208724,3.91159727022411,4.840064095047106,4.380137858583692,-129.43980331153028,-18.183942977740816
0.456,-24.12299772787965,112.08182774819987,-9.239606280850309,61.46428840922292,15.864638009228324,-4.8900609240660735,-8.143765495752463,6.112040967434567,25.448639922250855,-56.274624871339626,-39.02734893652471
0.464,-16.121349936587002,57.69702409887803,-4.950699902008622,81.19440162614461,14.241694516078239,-4.728269582108169,-11.343262844956794,9.894015743159896,25.25249147194548,11.601176134442273,-49.61378993620136
0.472,-27.670733328642445,1.7110302160118869,-11.424111839728196,74.56066873277312,13.243460018233627,-6.798656180820175,-9.108958514022113,6.7680802684031205,14.332102958351378,75.1844103239771,-42.90750498549243
0.48,-46.6553301459415,-29.13937782263258,-17.764348352187437,39.49984187274974,17.9633518360331,-5.704611912174786,-2.574408310421834,4.91217876445627,5.35235781271925,93.19516034028274,-38.526239041340695
0.488,-47.633044893958115,-28.39054208598406,-9.327730110652666,37.91513379475491,28.29771668026693,-1.4673756522863246,-0.7333602058683765,13.443291492604722,-3.4057930915854233,38.5935969320145,-42.77653969657633
0.496,-50.54121128907603,-23.04908725266431,-13.317421234518159,44.434500061096514,40.450143087986476,-9.198463409816108,-13.020956811372686,8.549990501034275,-3.5971308579540855,-26.323512529504733,-44.34270600260156
