time,C3,C4,Cz,FC1,FC2,FC5,FC6,CP1,CP2,CP5,CP6
-0.2,0.15496850813618332,-4.92774541236271,-12.02341319256482,-13.40006662338136,3.5107197985351615,-3.9492787054985787,-4.812051719896463,-0.5264615694300714,55.14125613210854,-2.8270913140790994,-11.209979076501806
-0.192,1.0152483487344366,-14.933994772881624,-8.989797929472608,2.857712031421742,1.8957238043915823,-6.7674852269627,-9.100662552475116,0.2962699095986338,64.8269777976148,-5.474104670867333,-2.9667548269214623
-0.184,4.562794035822785,-25.69497823268389,-3.7225327095172496,-2.797410163771376,-2.504387763530156,-3.343331776069835,-5.019030117566843,7.393309208038858,70.44593565239396,2.3170205117411684,5.112260532716324
-0.176,8.944945512225557,-29.354657794128308,-3.6764134287429378,-7.8747152685015385,-4.732085850684768,-0.3565990104697769,0.048804329727856255,12.574843586650504,54.73660762637641,2.8824353616747613,12.244943661306344
-0.168,0.7908909721508321,-24.568829603392548,-2.7012974992258973,-1.431273301231764,-0.6430621995697122,-1.0071880740467198,1.2376502352415237,7.879255134676136,31.003770623612823,-21.16581027048652,18.547440832231974
-0.16,-15.90737491177095,-4.822855703510426,3.276240039134908,0.44683047480996246,6.055590973516492,0.6923859408250971,4.087645623106564,5.176063756875253,28.507582245636208,-57.24016232641792,17.445596930027914
-0.152,-13.860135423755509,18.626025920967027,6.30026738875532,-8.720582439300577,6.6565405058383424,3.5698260333102665,5.495443219304475,9.110610949598318,49.38908827575845,-78.18051042133933,10.029993600942468
-0.144,3.7299388497839105,24.751463111509203,5.300391697837624,-13.566492318718357,3.245546845551416,0.8655726913326959,-1.7556337277055438,7.208687683949698,62.9878318034225,-87.76339523802179,7.506441116961825
-0.136,9.05505620623628,20.24089650099163,8.647579445752221,-8.539988227973256,4.454866063796848,-1.4467297032221649,-7.483038915942521,5.648104547619006,57.477397929572646,-101.81708305520232,8.788160469259616
-0.128,4.997701003204275,14.940601446454451,11.967071778864847,-13.870030715355892,8.90933845494249,3.3885732530436887,-1.7177118646704508,13.055098421896144,47.73034813427855,-106.70643304267055,4.0468038868680765
-0.12,3.188817156647772,1.152090506053815,3.87245558039255,-37.89377411661998,12.26040507481616,4.104793304105723,1.2097130126648776,10.830517443568763,32.977023207617115,-93.74502977599467,-1.541984812892532
-0.112,-2.9050972564117257,-10.33477709653076,-7.176785405431947,-54.67913958672885,14.120899225618324,-4.276680221197425,-7.557056902502851,-2.5660274259578726,21.79032376222555,-81.72190762099788,0.0366916555650306
-0.104,-2.196010242591847,-10.178036556914433,-2.691471726151507,-47.53078999083936,9.299632076632651,-4.0599070121418945,-8.096214874743508,-0.7870627581333673,44.51948610606941,-69.49347154744655,2.806664049255741
-0.096,14.672738825610166,-21.924946597059787,11.616608823826947,-28.197844091128783,-1.0942564091290534,6.9797716752846695,4.934571959200833,10.298888615879374,71.65643919710536,-48.86136913665655,6.703367363431647
-0.088,19.443657165253853,-41.27087056517631,13.485314023425651,-3.7183096723411766,-2.7426472011151155,5.514808033315628,4.575360158660933,5.734389966679479,44.34524021766655,-43.38338146265649,17.53875262666348
-0.08,7.85287081209138,-37.75755682371883,5.855859514918936,16.028893542209484,1.8663724158582697,-5.8773558896823035,-9.52787594794615,-1.5134781973480869,1.7330770944264968,-39.6618665017561,21.774219312446043
-0.072,12.79059870075876,-35.29040293268472,10.557658514397506,11.163947277069537,-5.4011478050871595,0.4101254384444558,-3.573133205669434,6.416893913232798,6.245797867228028,18.41953925348159,8.650121761127494
-0.064,22.687794421796685,-54.51419090101898,20.631720496181998,0.10476732958860638,-19.16024861342546,16.105616973668074,17.854861426999914,13.47181532172458,15.89126742298215,107.39575266516837,-1.4232182331315393
-0.056,11.615300367417628,-45.59005176574637,13.729971572761443,13.404729671474767,-26.681454955873765,12.66411765259985,18.16507661546265,11.202505767830894,-8.482302591942549,164.94971586798425,5.165461917132835
-0.048,12.372200603619874,-1.3730175884083793,2.3034112561664384,22.439197472582805,-37.87555521481142,2.7735509399362686,5.408967783946568,13.084161545863537,-32.09948867211099,210.5189982849108,9.73799589011869
-0.04,35.948403768338366,16.17828924013989,5.271825543323793,6.046448216986912,-48.23792802856477,7.956324706997611,8.55709300748589,15.617314932881474,-62.232916072188196,241.6318316581822,3.4644015572140643
-0.032,27.605821643140878,12.831684542768661,4.985057700569282,9.520531414552693,-32.284829984334564,9.668000480656673,12.986250610321857,5.093597192204471,-122.19313503381574,181.99927160509245,0.31571094139174977
-0.024,-16.173836693444553,35.89615449725739,-8.64825688808686,39.565423353483965,1.1716416118637527,-3.06585285201493,2.104596062751865,-12.199064601666297,-151.70111790406182,56.78396474857271,-3.6679313245857363
-0.016,-39.80907349429917,61.087508409792015,-16.88721869669762,45.44587293586051,23.658981287385426,-9.869435805758766,-6.222698113148865,-27.92934122426447,-125.37913349559642,-24.420482384383426,-25.749091282172827
-0.008,-45.96435933565943,65.81709861132722,-22.60640411107782,34.45574588601785,37.552612135627825,-11.251818467764597,-8.52292828367885,-47.69593266555703,-116.3980781791779,-53.219387912042784,-53.62750855369496
0.0,-64.61385954303643,91.01509955895703,-38.67784178934017,40.74031690983353,46.69873375175122,-19.42180437869101,-13.27799781892921,-66.87495945641069,-142.91927914720202,-71.21704327578911,-59.72855999476047
0.008,-71.71333489643902,147.83060185902707,-47.54712010415348,44.74573541284361,36.7975122410818,-19.361320074265464,-5.5922512474248585,-70.54968763840219,-160.29664704459987,-67.53928835085031,-45.18803948143858
0.016,-60.60543237189796,201.32099352185193,-43.49303408858601,45.08735203230195,18.218753881430718,-10.354294221381585,10.331182565949545,-64.36003927298557,-179.89071938701392,-53.380969250649954,-27.012673288841075
0.024,-75.0312481505436,242.23692388209173,-47.830145584856844,72.08490901480884,15.022508103943267,-17.06732015901813,5.856768004352358,-64.05403186132195,-210.2541798780964,-68.10207721104044,-6.983109270823958
0.032,-107.07340090659005,275.3104535836579,-52.563071302722896,101.63065404617248,18.561464330731155,-28.524492572857266,-5.108448739757955,-61.47419234799666,-201.6538402168112,-99.24413086714726,12.642987017097433
0.04,-102.76597932971086,290.4890342439175,-38.26392140640397,105.41688842458252,11.521707151331954,-19.097206933619614,4.907211912323076,-43.22343918087858,-148.46829070212345,-113.96349961038797,18.62432982808451
0.048,-73.31235493295314,285.7219088941717,-26.388781871114922,117.4346042966654,3.4029965071789436,-8.424589113168876,13.101500588241459,-24.662568064503507,-102.70321400486455,-110.28415763861675,11.922428731694001
0.056,-68.05571094940852,268.0053011525499,-35.397560519557146,151.28883704519717,6.380267151017172,-16.50937167708477,1.3604316702162915,-23.633006311468385,-85.91577324525355,-94.00112063010012,4.472438372449025
0.064,-78.49185358935445,240.95475200995236,-44.432411503095274,172.17568564514303,12.528227477474468,-24.070000534436097,-7.0958935675571615,-29.067849766788388,-90.01020448376214,-62.3314076626912,-3.652436215529917
0.072,-74.89970327989737,211.9305948031296,-43.44383793936072,172.68024542284192,11.78942933428773,-23.655149321292996,-8.030762795948359,-29.85246358884944,-109.9277108582765,-16.954414058130816,-11.10016676055757
0.08,-71.56324260568078,190.45812900299606,-45.99128832317874,170.89980366356556,8.985371977529997,-27.58782867248532,-13.78749384625318,-32.78348423070869,-133.81305337337395,19.868338949171843,-9.176509257838921
0.088,-83.08430557009146,184.63313654765028,-48.02626460734453,169.62950338136645,11.581555756558581,-27.11544548066265,-9.913953129217075,-32.367551339587145,-141.9978973966048,19.6519635198435,-4.124696728903688
0.096,-89.29030208637542,199.16836548585206,-38.825814035343384,167.11762546449896,14.922565230445322,-15.156562071369155,6.037089591094846,-17.95792013004679,-122.55447823255913,-6.8435126843612215,-8.845413137124025
0.104,-84.60000324922515,221.27165766750653,-31.29657899640025,165.75286171779436,16.100309886008272,-10.52811833171423,7.209528974235039,-8.60652936611399,-96.50185467599744,-24.942304256968885,-21.61238420520143
0.112,-90.48568546647392,226.61784544837315,-35.63683031235588,170.1959535036789,23.736858186039584,-18.26871362658229,-5.161709997076305,-20.11218303415666,-106.89042875998159,-33.48918503359038,-34.369575018098665
0.12,-103.14778768770485,206.43904234933373,-36.69916777336315,180.50013269109752,34.7703294024507,-19.74359728868776,-5.158220055887602,-28.288800684821055,-145.80630336108763,-44.53529407985546,-37.89740504390924
0.128,-97.53115794236547,174.33687291116124,-26.193877254328118,175.20717750252925,33.62869752614121,-10.855525497872542,6.717511397459476,-18.52689797048169,-161.62251017965613,-47.94563811100915,-26.154459451289085
0.136,-81.11614636172916,155.77747747467646,-20.240898442009954,143.58972609183039,24.661791427096716,-3.9274994319366883,15.465219441616586,-13.945004853179453,-155.9213561109021,-44.05372075837724,-12.859532944761243
0.144,-82.20327682441214,167.87831696919946,-28.99373060122735,119.79154336652273,24.465920336478014,-4.794171841110418,17.541021985565315,-22.911238175733978,-164.34486827157974,-48.88487051928116,-12.899045960415261
0.152,-98.90307103227497,197.05052320536188,-42.59710406319232,125.15805894849973,30.07935222021514,-12.000390596968934,11.98006299802604,-28.79624770277081,-174.54406700466353,-59.11796728156629,-16.12026285351946
0.16,-106.81296516984571,216.17129493446882,-50.54499474900032,131.3776193871,30.816838014872683,-19.561464018523022,3.116349930624247,-30.63813055412761,-165.7026123308615,-65.79346597430232,-13.616494372864297
0.168,-97.56196731578021,218.89655854842687,-48.91429039016412,123.1998709191552,28.292387600479096,-19.463721964654034,1.3849480768743714,-33.014057097746985,-155.34204119675312,-73.04261971155854,-14.129064286158108
0.176,-82.57121705681952,211.90712393285636,-37.58726559530311,120.58476536524326,25.660265734811293,-12.594235339520237,6.193141225768387,-27.564159121864115,-155.6032650327977,-77.40044722640765,-17.199770661644877
0.184,-75.25428412086484,202.3019054963597,-26.08903712597727,129.16126198915788,22.05518391577592,-6.451204915234075,11.905572644470404,-19.405196504229462,-158.14728925003612,-71.49932132865156,-14.047164531686743
0.192,-77.16450524737888,205.81044791982325,-25.372603960545653,137.0096762488629,17.637771059684727,-5.129405145113387,16.65844277642758,-23.26387997473576,-153.7520809195737,-63.497976919411094,-7.174418282667756
0.2,-79.07514464362505,225.63708485013294,-31.446923169593582,143.2232625312849,11.64789084175247,-10.353612144270816,12.699103961421727,-30.908954458928765,-132.11615097558476,-60.86414617159389,0.6158298166479932
0.208,-79.99514892253329,236.30474710374904,-34.915493228322006,146.53602651175882,6.050000768673122,-18.676328502198672,0.5685596422138939,-28.477965515686236,-98.05081895537506,-57.401614690578015,9.884848114731806
0.216,-86.22228477201216,223.5345171706067,-35.741394859192305,132.85320960277053,6.245507719190091,-19.708539368261786,-1.324061510558722,-21.469689706333494,-68.7778319936373,-48.9850730483296,11.359065263862217
0.224,-87.18971274224107,200.52982044564885,-36.04566483297387,99.68427723622031,10.131259093663962,-12.308813415433775,8.231177461682163,-14.481368931641109,-41.82680021019299,-41.65969470485042,0.10099658191291364
0.232,-69.61463688575853,173.19095286491137,-35.31137585511064,69.1748555815363,11.462574927005011,-7.777924828940511,9.471248577017102,-4.1432170548081775,-17.866403181383504,-42.28403885642913,-9.660030548145805
0.24,-49.48021129939825,142.27609235989004,-34.350311728418625,55.08877599897722,10.425456100761888,-8.651303161672674,3.574229409039335,3.6416542490628148,-17.95454706141288,-44.64484022024415,-6.7459541771162925
0.248,-46.64605808156756,125.27773813094076,-30.553525434669805,41.42015695788971,7.863928727662885,-7.320751484116087,4.706691985053555,4.042739621413,-33.11410546931323,-33.32454523724724,-0.2570568853163848
0.256,-50.39054596605202,131.9416800009153,-21.108311245361243,19.981874011077085,3.8860973355009847,-4.9378983778586765,4.717938833126897,4.070236260501221,-32.45630868945354,-16.57043905951088,-2.4710527153387103
0.264,-47.97565989962453,149.3323952832642,-15.262496072130771,10.655246151761366,4.598110875167614,-8.302136823767682,-6.324024025972851,4.2271246764857136,-22.815355864539026,-25.733577972629913,-12.13994955539844
0.272,-49.21580143973622,164.37301608811993,-21.368836752904432,15.411671714373568,11.913119726966983,-13.963014629617271,-14.845098904652113,-0.9978151929274105,-23.168988275858236,-60.370054012350494,-18.85952265669132
0.28,-56.250709286237246,165.51650918919557,-28.782734585758146,10.048389409919961,16.533616147885066,-13.239679675182014,-8.912826334240325,-4.86827750425817,-25.009345667701652,-84.3164005876629,-14.770993429693444
0.288,-54.80493235279603,142.57734565237593,-26.286256185724117,-1.8353512369886569,14.564342013325984,-6.54771069720625,3.0964705372951062,-1.375608332920211,-19.932182388724737,-84.29282568759302,-4.7774130046012475
0.296,-47.06149441964599,109.5090289869787,-20.839098627528585,-0.5078334599413628,13.10087296142254,-1.2329508637089515,10.501471139024423,-0.506761986058274,-10.72244734265467,-75.85856977855528,-1.755597058015174
0.304,-48.52542101953502,90.72983038277984,-21.660411137021356,-2.6772570229442163,14.593852964262458,-1.2230077259167775,11.985149892180631,-9.214507922342698,-6.024679777650533,-67.61744836048211,-4.257082641903134
0.312,-55.89578127563019,88.47224209980016,-26.90703196830656,-22.74963161941249,15.205458837221448,-5.860097650597893,7.698477122643762,-19.006595841065653,-24.502984750927055,-62.60783312000002,0.10565219840997128
0.32,-54.54361945202098,96.7384839657659,-29.889691924643977,-29.151044930481692,14.997103051789406,-11.168694736933496,-0.5759986684508753,-20.93361354218512,-57.23129031057891,-65.54647982622106,4.838267324109516
0.328,-43.18799316569803,113.3717003128786,-24.229078210551048,-6.306316180008096,14.092471182181768,-9.56488745597019,-2.478472857334086,-15.427882864379821,-63.83621281092852,-73.09098288454165,-2.024931929752964
0.336,-30.325348910568998,122.87889231552624,-11.718786262378146,15.332423303019517,9.194303838280186,-0.8216634712726695,6.583496686732343,-7.772502729142752,-46.22956144153448,-79.05818081321907,-4.618995413309524
0.344,-24.28467235630204,114.70695600206268,-6.4426847545363595,25.863480470055574,3.321280752317339,0.8381812802471893,9.425257718484806,-3.2076746431005887,-42.50254700935976,-81.46115482053003,10.71022226847206
0.352,-26.098558463434944,106.22682094933766,-14.80248690965332,43.211821142752136,3.0070233846023586,-11.0671171294197,-5.743498106742536,-4.219455343306111,-51.05554409425143,-80.41406693374724,24.074401484960188
0.36,-23.36737022761981,108.48754579641648,-22.54340075971915,60.16381432226327,4.1605652315660535,-20.356920353442078,-19.194628674684306,-8.575703619719974,-50.00303381472182,-77.03170517083251,21.64033011917893
0.368,-11.591657909864729,106.88938088687905,-18.19780364298082,63.748344611331845,0.49074088634248897,-15.878168291015827,-14.806413619665978,-10.42615974879506,-39.981145505584,-64.9038159082361,14.174564696020873
0.376,-6.480642940572166,92.58240467178696,-10.118251251739748,64.44104273265403,-2.402634426503741,-8.564434105773408,-6.9097399199006135,-7.266188737384053,-19.113323114241336,-37.00599247340439,3.9679332520367065
0.384,-8.785493766341164,68.9554089165692,-7.776112502503662,62.28532782081286,-0.5226913271298583,-6.371326995300341,-5.744049925632224,-4.609771952123123,8.754424180047842,-9.369284595593372,-8.754325546939558
0.392,-2.0126210523294166,38.08765977215293,-7.48937938232196,50.78713718187113,-0.024064000215930904,-4.7290772523829245,-4.0020894326109255,-6.1525495715698,15.63318014301102,-0.1551182731391202,-9.93949435451423
0.4,5.027474710147261,9.524924460251418,-4.517166080106662,48.68697415490913,-1.3521888583957495,-3.7248838248549694,-2.8280089385851377,-6.401597259025212,2.5934414664532923,5.32896086611456,-2.032590455943512
0.408,-0.6591989722559705,-8.478985028698089,-0.6272760415328589,57.83054747901565,-0.4925816912955865,-4.224681051354881,-4.490079820952498,-2.3334929814340457,5.611729332025984,23.228085083902002,-2.010014582890208
0.416,1.751339642154588,-26.181480577910946,3.4716852321301737,42.91891106404678,-1.6454975089625483,-0.08600515355673195,-0.37695170775373776,1.7282186494045693,23.02264522171047,37.29065783351926,-5.47076999363047
0.424,18.528266373165078,-47.85845762605523,7.44938572954514,4.744513630655552,-5.004263171173366,5.755489481196116,5.171135389510171,3.4966967369141075,22.98631337982142,33.77261311293891,-2.6923672373498966
0.432,19.595738676029338,-59.44673069511444,7.018980291569687,-13.172112548873232,-2.632529952891996,3.0995444014443563,-0.08215680626186558,1.4416016337493847,11.411883548792341,26.21933579019405,-1.0841810456925531
0.44,5.275229572883964,-59.141174737726914,4.188999055527534,-7.788197798436756,2.2651389622173506,-2.6042719221765345,-6.835093571163847,-5.605061990265426,14.34587630017345,25.1841015900962,-3.9340233412340275
0.448,6.78657285562627,-59.308248793597045,8.48085852105092,-9.71702226893579,1.2689417112347459,0.2608702285901443,-3.258543877434166,-9.817827213980873,23.685181205945383,24.075661958539946,-6.676941121208749
0.456,19.69435435818735,-63.16866192788111,17.768691353311194,-18.592142377262242,-1.4703016771772977,7.261785328444727,2.969991592021688,-5.483683722531994,18.444305132289223,19.330870013393426,-8.171365344669812
0.464,21.00769406578071,-68.87159952565227,19.307384189313996,-24.15809675237469,-1.5705374929508535,10.187331693136965,7.560053276264456,-1.8027642824758916,4.849242739957977,14.713006508738522,-3.0096300644927476
0.472,16.83169047958919,-72.30827266504423,12.257227789169276,-31.951324978363004,-2.3041925996712567,9.892447151736542,12.21696906240504,-4.3005472255164765,-3.062240415207733,10.624876821292911,8.036834424094264
0.48,17.427738050037334,-64.17404171964907,5.94699239912802,-33.48574539168289,-2.882684254979387,6.013338619202818,7.859968253365049,-4.604195977689625,-4.67683540720404,7.689005696254287,10.911658040721349
0.488,18.18655878931335,-50.39902374580043,3.923524925028581,-22.934991598892672,-3.1157797584448876,-0.5115683758730509,-4.38626712984304,0.2352339885533225,5.0640633102531964,10.78446614556406,7.026542263524464
0.496,20.847129373197625,-48.78475141833466,6.363028891064234,-19.415803152325616,-6.9389431077536905,-1.4529569650836343,-7.262257074751115,4.381342084568454,27.29005853236232,17.65720834737255,9.060802950965984
