time,C3,C4,Cz,FC1,FC2,FC5,FC6,CP1,CP2,CP5,CP6
-0.2,-20.012845832905704,65.39985445414204,-15.3469489348685,59.64447168622484,1.481436229549504,-13.11745787654949,-16.377073463986235,11.63908236099882,52.21603607959671,6.243380230496926,-11.031369023516131
-0.192,-24.80159309675835,52.37698016367913,-11.169792841032999,31.15163514278777,6.92764405379367,-6.848961666000227,-8.160274727965195,10.691873536315905,38.341575068654315,-3.5913951525894827,-16.410595773756874
-0.184,-42.79303611047351,44.93804174323285,-13.350071427611233,26.140129776026733,14.631220638637885,-10.261528228688327,-10.7510508354521,4.482528558831899,26.020291305539455,-13.482457103250987,-16.31680983791796
-0.176,-43.42914771212774,47.376150764817446,-17.814601624814472,31.681854909199448,19.88022755235926,-15.633596563771361,-18.416750568082687,-5.366463656022607,21.80207454286429,-29.458280815359196,-22.55534204482937
-0.168,-27.749758188788768,30.345217125085714,-18.911698097413158,10.574952404027076,17.64312931669404,-12.330655175017418,-14.583036116688792,-13.31033992626076,23.40135992484446,-21.22846554387387,-28.387379382802344
-0.16,-31.61245768848654,0.35252824883593553,-22.23515892049705,-3.4335024310280082,16.168421578273787,-10.254088181729422,-7.124315450184291,-19.652990464195,22.512388450409254,0.5253092594776748,-21.639203057776616
-0.152,-31.69657910795052,-21.637932642255475,-17.513607426157048,10.9920038624207,15.082393418895814,-3.52824044914892,5.914315322413357,-15.186252854266927,4.728584072729729,-2.1899481412380317,-7.326290211281765
-0.144,-6.4012990516563955,-27.87524902210027,-0.8244678414170037,13.315745150911528,6.477967843989639,9.053483677091501,19.347749317595657,-2.088534302617486,-15.418852301430983,-13.934403425991286,4.330893902826832
-0.136,-0.5095074294809391,-2.873960164446877,4.738048406332276,-4.697789840479602,-1.6045970436470218,6.139200799916809,10.926972689727025,-0.7672976076897767,-12.33273045041654,-10.911988083269755,9.141157333475139
-0.128,-14.990005117494727,44.814747654767764,-2.4314097191643977,-5.563158487208594,-2.5989813596409292,-5.427577645789384,-5.280152660596636,-6.387692901075893,1.3632375344223213,-14.99920111619057,7.336320962382443
-0.12,-3.198493496886926,69.34903145726823,-0.18458786609208744,15.096025057363487,-6.108758024924151,-2.649824163938919,-3.1697765920809844,-0.5106520551338357,12.083641481980145,-25.677470991359815,3.970330656757499
-0.112,14.732767141289706,56.3244494824149,6.119323804585482,27.41394432915363,-12.343503919001385,1.4073855485304856,-0.8103182603656227,5.81190235212756,28.9554602032562,-8.10053482362797,2.2036388199082713
-0.104,5.6347285476527915,35.687932806452835,0.832481005065815,21.01419750866642,-11.013123217958805,-6.643621549258565,-12.08925601150358,1.025111238397538,35.58024954371794,23.69448826417992,-0.5491275086015245
-0.096,-3.8558715141590367,23.475964105973674,-7.082210381895264,10.319006693206113,-5.389624961799694,-11.04507713575127,-15.999405393837904,-3.5049289283605116,14.878326889159453,28.198870106666707,-1.4326900627112718
-0.088,-0.5877509674372895,12.321398236535254,-7.410187357974462,-0.26753013239565165,-4.942353466874503,-6.528044651668827,-7.288931341871319,-4.302298685875671,-3.1277137374241626,16.83141163626972,5.622853411153347
-0.08,3.6980968673361323,-2.3406182715556376,-1.056535336695527,-19.34881952292477,-9.131214248206245,0.33665763139111476,2.9386979684246524,-2.905163362715262,-0.358217836365007,17.09042873607408,14.44546137978595
-0.072,16.385540201002872,-16.04124630918496,9.322049640544877,-35.49181299489248,-11.969917943124328,9.580601620963936,12.11112100455207,5.75518361683229,-0.3111751441376684,17.763601000174344,13.460891447808411
-0.064,26.7016134199666,-20.741914958841868,12.353870812392241,-31.19527443832908,-8.062482448155583,11.194264860295505,9.970960489193404,9.697402716256793,-9.2473416841015,9.27535064063411,2.283573266750527
-0.056,16.5682687084626,-20.042806830936986,2.5702826102040985,-21.522675959684246,1.2789142275445267,0.978800349719796,-3.8768270294948177,-1.4261220065498619,-19.46109673363243,4.839614695733875,-9.314288094985754
-0.048,10.91851845072659,-29.733805133686896,-1.8245307179396217,-21.040565167746653,5.498698338073509,-1.1859809744605208,-5.0737683680265135,-5.551392146308165,-38.28740186671277,7.084367956389315,-10.232878255343389
-0.04,22.908722976303068,-49.30451029582876,9.134404122167004,-18.443189372660427,0.4391834742599192,8.445917997906516,7.048165286825195,7.425109691722079,-52.422030798119565,9.608081194355746,1.200999860335308
-0.032,26.916637227923644,-61.888077526562064,18.922616414559034,-18.88451580396737,-5.18540745260239,12.703166527529461,12.156034824693316,12.029290414106796,-40.24228413807001,10.488450477830037,12.983428061187519
-0.024,23.60472052493607,-63.092285168970925,18.752012174722115,-30.343150197058122,-6.839170652930821,13.242825101962922,15.499056357756242,2.086885727646929,-24.038915953947953,4.622817497166213,17.092625164824643
-0.016,28.219617944180833,-58.17295164147343,17.975643394508875,-28.632029027976714,-7.831812897355574,15.571750631409992,20.203830608122516,-0.7737391482068141,-26.596276752306476,-5.061902359886161,18.749815372069566
-0.008,28.819369882514952,-51.870709121555386,18.884023640402173,-11.72222739558704,-7.53457724255602,11.266277481404197,11.732742618226625,4.763092989267422,-26.885751925200577,-6.0846092507399385,18.82326882337925
0.0,26.52974342231056,-57.14622915580627,17.551052468088848,-6.757725748048948,-4.9537117932941035,5.5343220336504055,1.1512903326066106,6.32640484277458,-13.153435775308688,-1.5455148880716245,13.550714790878292
0.008,38.07800536555249,-79.5315052986519,17.99693466612259,-2.6864465517958553,-4.536510665449056,8.149507860597838,3.7744027781051943,7.977696021125179,-1.0034386212806912,0.18984498764085103,10.103899468070146
0.016,49.30016876890168,-100.9260455027879,22.62277566499667,16.23148405271493,-6.888258379241458,9.738618279527051,4.234290016769799,13.90382225840367,8.275357199801656,5.930696376326371,13.597598645015328
0.024,44.01076761842024,-109.298516135913,25.17143664917844,25.735436227580596,-6.822618081879019,5.911046693697835,-2.6569140356217207,16.37192515983493,18.04631157030285,17.212580323329128,14.756648067184168
0.032,39.12394564467741,-116.37341949490308,24.29084496600358,20.9789359040254,-4.359489298110215,5.404423653333254,-3.3973629417816507,14.21040261382399,21.035789276915313,25.698039670250303,9.188720847867526
0.04,46.09664523533029,-129.74009017989744,26.44886258761996,15.795126461170996,-4.32750763066741,9.107887611875762,0.5306461098641967,14.807470987570383,25.109108595648003,32.10505485381933,3.88939030163633
0.048,51.54451223370072,-141.08279472085457,30.135485629007007,-2.1956990250111845,-5.299638967134927,13.284961695007626,4.353786296007335,18.923937793311026,38.76817040712551,34.1268256685099,1.4754903984906869
0.056,48.57373654584221,-146.57792505813177,27.707136138932405,-24.216281682816717,-2.609296502535425,15.118017691191211,7.693712937956671,21.312379842532305,44.94489337484876,22.696332266166873,1.9840708631627668
0.064,45.42799518130162,-151.9526923974858,23.461593585448714,-22.758457242306175,-0.22533372535034557,12.653438475078277,6.42852147297543,21.620667035442686,38.35443562629829,7.940112207474026,9.815233694576358
0.072,42.34447594968248,-155.04494166182727,24.573790391392443,-18.479433540444862,-3.0663494020450477,11.4805594204217,6.39502441449627,22.067382210199117,43.73827135397648,7.40936135081486,20.720227391877767
0.08,30.83440492936144,-145.3097193110481,23.84478503767369,-29.586292096294397,-4.0471103652692175,11.533257313155412,8.356581107577771,18.875507780724448,67.14115792670579,12.985533909400571,20.01262004805373
0.088,21.267487441525684,-128.40846509981176,17.875116430505333,-30.338224879235216,1.1349343278602835,5.873613563320911,0.2902173871921194,11.586196514579154,81.90293305590905,7.728861154477245,7.402842917551095
0.096,33.04104890285932,-124.85407088151707,17.97157469717489,-25.05372327711622,1.7955865583158348,4.210414458676539,-5.21325822540382,11.825038146457112,76.68935742826437,-2.326407987678031,2.305061296274011
0.104,52.28362669524359,-134.53222069342465,24.693862356799503,-37.23247372610627,-5.574275645866031,11.946661137109855,3.5663079049118935,22.000414837957475,70.65913663771997,-3.085710355265641,11.979753313264784
0.112,52.540671521345566,-139.38569986060259,25.675303951371585,-49.83504943762271,-8.498961714047516,11.764584474211809,3.168172189551527,25.373053439684778,73.66320912646182,0.08997599127820757,19.615850184229256
0.12,41.209539945935234,-138.96073080505585,20.11108160527024,-56.65240568952273,-3.757687390723646,6.592638816037757,-2.397572646077548,17.225032449871563,75.00526951242425,-4.069545423412521,16.619157578362625
0.128,34.64422882702404,-140.12456051550947,16.046017737338392,-71.86798484417758,-1.5217503357904647,14.392480400377186,13.824817710196385,14.117926813422114,76.2624178545497,-7.955602839242734,14.72569729259448
0.136,34.8517726250121,-135.25707534675126,18.0969244009977,-72.31653646977666,-4.943710226798955,20.184562155401704,23.202958643179752,20.918540127105807,87.18907477420747,-1.7831631807441364,17.105224159685378
0.144,44.62122503758993,-124.17114913363433,26.28869614050517,-48.021194221833504,-9.033557378408364,10.64217217694604,1.608287082159094,23.638948518559467,97.59842080597247,3.432625142475044,14.997679542470765
0.152,49.49017543271343,-117.63000222872564,30.64943342493384,-35.510558170396244,-9.530599857956261,6.297096224036956,-7.9900638277465905,17.29855069693928,103.48121077981804,-1.5134233162197182,10.473970196086656
0.16,32.00282956476244,-113.81445755474995,24.83390501982902,-34.79935984869201,-5.486126038760151,11.943985171976573,7.194761059543683,14.156145621475158,121.9946185728264,-5.131770857059674,8.42983261693871
0.168,24.448941567762823,-113.07922477209485,23.431390577764038,-20.100192488651825,-3.32685235644988,11.711618445403698,7.313714756342952,23.384382340437703,142.91424128028595,-1.6631286086050203,6.171729734104386
0.176,52.0740129630349,-128.23937051386474,33.255750836649334,-15.55052534155055,-8.643325416771809,11.051420143939296,-2.707404045449546,36.507538093229435,137.96148474406937,-1.029268138793072,8.376458227606104
0.184,70.16123840137547,-150.2978771411162,36.085296283461126,-36.92879388963678,-13.603764861930436,17.667786039715512,6.166225983780242,40.05323569843212,124.07268022277675,-2.0663158071163434,17.78413947345025
0.192,54.50283065376686,-151.73551352543345,26.302607403147324,-42.61712848780051,-11.2853978372139,19.262543856217377,15.788641862417132,36.42463934690665,131.75221915697452,4.989186421920039,20.19060087776698
0.2,47.314349130876,-134.95331293282695,20.169215589033364,-20.255269754373085,-9.36641431505337,12.372954887849282,6.163971432067216,37.10354548851452,146.72620475768278,12.685414838897353,13.011713572404593
0.208,60.66872618404483,-126.71347612119567,22.58364514117282,-11.176221106113582,-12.852109728391314,9.593115560337434,-2.041468420584336,41.384189723910815,151.469277772368,10.539783489146304,12.02712330781384
0.216,62.67988677066375,-129.70862676947866,26.520557375749345,-26.479028714434236,-15.014254482161087,14.999084467810187,5.919562739719034,41.288629012344515,156.75423230779296,7.749069399948797,14.390075927832413
0.224,53.47133114933834,-125.65324732099809,29.705883768538463,-40.764789829591386,-13.19295084222785,19.741120743899284,13.550036844806101,37.66805032249062,159.56590559276367,8.981786541538831,8.822614120638361
0.232,51.57283099937505,-114.07225116893684,30.055244761938436,-50.74029623213561,-12.271613380285284,18.52544687796564,11.095467318900461,34.370896315759836,145.66699119118636,0.3744952872209974,8.012644066696884
0.24,49.11886127085293,-107.55468727663985,27.02897425493111,-62.021679767196844,-13.088449371035608,16.971842879977313,11.654436271989885,29.423543624364562,130.48886907486144,-15.837801442807956,18.971585685957223
0.248,37.23905552245041,-104.5623533886212,25.551342311794436,-60.29274234451213,-11.758903489223323,17.347177674626774,16.289259549734773,22.72171895293127,133.58543017908485,-21.001586478115946,23.060763275322664
0.256,29.16834014184525,-103.04225502103223,24.10494530262125,-51.405444098608065,-8.143497731990385,14.506723573490877,12.705379107379771,18.635811867864412,140.11289888334178,-20.240692014605656,17.326552210334707
0.264,35.35616908008751,-115.47835572227484,15.297998873783056,-67.35837860324825,-6.9167710377264715,13.114714028877202,12.721914916057843,15.639062500985613,134.49463606906366,-24.345928456573176,19.114155866264042
0.272,43.429358228263396,-140.2792660434012,3.1094008518971696,-97.58721140950595,-8.646867932454503,17.71314624916501,25.699279700982483,9.574519590086508,131.78695754958287,-18.458856228586548,25.64954430784011
0.28,40.26909019119048,-154.90056087315688,2.3913231709544287,-101.34020238239896,-8.208845027590401,17.167814163119118,25.29191445530632,9.731944650878043,140.86727541882212,-5.429205766868179,24.98165478231655
0.288,37.01565025823522,-149.39834204217036,15.941715099360998,-89.89717829182827,-6.766623953826636,11.272688547811367,7.479334010694615,25.99493613789624,148.25089009830307,-13.180372552367759,24.61419192641688
0.296,42.37413815546875,-128.90361738152046,25.549410126317277,-88.60321333663506,-9.899553927610677,12.393558006559125,3.126926776758291,40.70774884273481,160.70894372835966,-27.638946072660026,26.244924609078684
0.304,42.406475498157775,-104.43425081449065,21.21855390569362,-67.61291551499684,-12.69351191366749,13.011408335709177,6.5565356848671,34.090369332701314,191.3633414926675,-19.212032631684245,16.902542979265203
0.312,39.70532477234074,-102.78270398548186,20.3630100793856,-17.267115613424867,-9.728121353936382,6.645816025482774,-2.385417623647052,26.42038966462445,204.19291911398955,-13.39023654467374,8.328236636739932
0.32,48.92176361862884,-132.46409042871122,30.65834869284456,14.535121030461172,-8.613726987469024,6.629216073628896,-5.899020024358159,38.87442423264343,171.40710897516936,-24.591325487127175,22.102228950318818
0.328,48.342791828926174,-156.08154126493744,29.98848769196308,25.333704834999345,-9.700437397877502,6.240939215258227,-4.1992248739887845,44.45500360780632,146.31502094200906,-12.946406022816731,35.867039083944675
0.336,25.765103700373984,-155.79583502869534,13.868982660243622,50.40625118911948,-1.7545510636291817,-9.606136440282686,-22.353310105002063,23.05176401084729,165.95219629700478,14.896316317399146,19.458259029202218
0.344,21.719812766226042,-159.43963072053708,7.251477239355861,60.25809624100463,7.375339094842808,-19.247980552605956,-38.088006116600646,8.327388892630301,171.58812536612285,16.15797700346605,-1.5268955947646985
0.352,45.230678192155615,-168.25316454901085,12.373593817713685,20.67175002738587,0.24737982330505948,-7.155784679306133,-23.560150218311435,20.545530804112012,126.98092938578465,22.97446132403583,5.2589600749073036
0.36,53.448372610038355,-159.0013340252111,10.564055988698676,-20.76321843145717,-12.685308409462088,1.9095119147272708,-8.088134726158964,29.43060119590061,80.38659807410407,65.8209667341475,18.098742517629486
0.368,44.21894370017735,-141.98942069747136,6.334331911302618,-22.8232145576946,-11.937528814888394,-1.2503510622036813,-10.80024886544301,19.926690297902688,50.76197978696866,83.08422244766388,12.611487705747576
0.376,39.63212568022954,-129.61238114608153,10.667478782511896,-11.783729787941303,-2.6241646680572437,-0.04486192463723108,-10.069310550926492,11.358441287513664,7.583133027721595,48.86339533515864,4.333888646527279
0.384,24.58352801661808,-112.76785365785626,13.329846232954987,-6.4417528581331736,5.431042230217319,1.4086355891507347,-6.225026198921854,5.295930824740874,-39.3401400347895,22.214638510761397,3.049006375265439
0.392,0.9960008917066628,-94.73009204968939,7.082022455610547,4.425770289948728,14.296951995164248,-5.942096626491019,-12.808740536588788,-11.728918486778408,-66.57541626108387,15.015489282079816,-4.023696107891288
0.4,-3.875638223153315,-63.904049627680834,-1.968594588135652,15.564697938608592,20.39228622481512,-11.131570206306684,-17.279832875214176,-31.87781347882631,-90.50838771279963,-4.8133214010168315,-16.19704113678533
0.408,-7.789195252312439,10.409592675194364,-12.073549769356257,15.134890470841528,16.760564796706444,-11.560750729363116,-13.148069007112607,-41.89285261157529,-113.86243190979404,-21.211572236099794,-19.250799702238183
0.416,-30.16144341794257,96.25062504492823,-19.707223706310053,9.422118479837597,7.186206993617712,-12.757092211786825,-7.532962039625509,-43.29183523800523,-119.97867659850465,-19.88311922324481,-7.240159703151015
0.424,-39.28359197391986,130.18364869006126,-17.513831260752667,4.62001536406557,-1.584358651566912,-6.806972328691649,6.403735057268575,-37.71094864506528,-127.08246097143777,-27.974606187902992,14.16622471241469
0.432,-29.464310030627296,127.79426540785877,-12.850777178966299,-0.005655786064178971,-4.571587444066297,3.4666816401757607,22.220080840482016,-26.715727836311153,-146.31974540924188,-46.015441743617345,26.20698948130742
0.44,-33.86141195714057,137.9664036339658,-14.23756647116087,3.013520164304841,0.6403938802737713,1.970880501863437,17.40786695001408,-19.167804540100317,-146.3432476931065,-48.554646068347694,14.89880856665394
0.448,-42.6140818451774,153.69192309676137,-12.03441595377886,20.392470950216243,4.977146931411242,-1.9039302813715338,7.665216769189248,-15.465540227503329,-122.30938432811347,-38.54591743450683,-3.5847236813147485
0.456,-33.77017294731902,154.21132311614542,-6.075492924796334,38.47634924883413,1.735162146888013,5.901188770032939,17.401694529979594,-10.001062095299316,-99.15410760847905,-25.950788879355418,-12.07042611834169
0.464,-32.30562543349024,143.72190641938462,-13.203140203532053,41.919825630476005,2.517547022431574,5.7195047693859316,18.19385984486062,-9.537749139240724,-70.17779072035479,-3.6165432243021285,-23.141143589004773
0.472,-45.0405284382569,124.80839074312851,-25.273128813736303,42.98677677734626,10.943733112911646,-11.271391754616896,-8.773811204981616,-14.099801768450384,-34.91525598176475,23.406282652637607,-41.03671876413231
0.48,-39.158226883265435,102.12788871190764,-18.20535552633002,53.21771732317977,11.397722440168454,-16.216320544574174,-22.39336895396213,-6.720183477671838,-27.614410185013103,37.31544468600151,-44.1145524234575
0.488,-26.336029835138465,88.60107229692157,-4.665375034611394,51.785910390151535,5.143385236129084,-3.7483126893933187,-6.40909366099408,7.859818948017458,-42.17235411077042,34.79963361257122,-31.40912883959811
0.496,-45.652491177278854,88.71563004367309,-11.24187036070679,33.66335019145223,10.413855491539806,-2.419364049970343,1.2557195093055604,5.472343809435487,-36.78520472415975,21.60342624594656,-27.302655906266725
