time,C3,C4,Cz,FC1,FC2,FC5,FC6,CP1,CP2,CP5,CP6
-0.2,-43.945538912872564,16.861633589155684,-19.76785572334541,7.763166387877797,12.738060408194752,-2.7722741403115645,9.578204905819172,-6.632689462664593,27.601794796659018,-20.557084278097182,0.15037092620630635
-0.192,-31.6863442861002,36.188336622199,-18.23338756923122,5.007363321915072,6.889195902089404,-4.960291097595791,3.1709626056976665,-8.833655553519893,49.63767946911754,-22.432491283448726,-2.9068909087041783
-0.184,-25.117492111716913,55.861378685199696,-15.528841068305088,20.92201712837614,2.7641745603718375,-3.9762403164337017,4.678015569535585,-10.065269157612041,52.29086218196712,-35.24066823709373,1.4142693241828674
-0.176,-23.704790597291954,59.433993653510896,-14.337326078780036,20.251632061046855,1.181499802262381,-0.6381970401672394,8.91656799167992,-0.8963838724522892,56.45297791004703,-31.432256422871557,2.0300760783226885
-0.168,-22.58487166960195,52.99725397087044,-16.414144134111474,11.569172549970155,0.9759632788649867,-2.470651089551809,4.546031237286235,6.964802202883378,75.64350602491389,-24.42258069291911,0.6177322002173736
-0.16,-15.351039465482557,43.667738264716505,-13.693933649925897,17.654919019768077,-2.5053077643487867,-5.319447487357432,-2.1960603630041797,9.360786984662145,87.51657858403571,-13.255910005333854,2.5787177590674175
-0.152,4.55857436825241,15.431595478999805,-3.338104865539757,24.336532034087753,-10.92844598708557,0.2863940535154533,1.7174616955266788,17.773913492685132,68.75176798991491,22.089506877718605,7.3414683928748765
-0.144,21.577967290145665,-16.13525038408988,3.7764124172309534,21.47795567357716,-17.753964828821115,6.358814047521366,7.315827992859504,26.70146430489756,37.2555239487845,63.579650813080875,10.79310369946914
-0.136,13.505438187543177,-10.98720241955076,1.9782009223442651,17.65231529955021,-16.42613167943844,3.041756411302979,2.6090760451868853,20.917355360521046,23.67289415042004,80.938249531418,4.73087259824182
-0.128,-0.2764861345113001,8.20107023853565,0.38541122237928016,14.909585190068297,-9.847477715230534,-1.3516007458652521,-4.07205072114087,10.357171982160798,15.210831301831576,73.5007607803725,-7.886313692692726
-0.12,9.497406856910919,-4.398441169271354,6.022274885032142,13.793772998554656,-5.460951889408312,1.9505599378964837,-2.6946102869007684,11.617058420301644,-5.2406638365444005,51.68879530873247,-11.418200073398589
-0.112,18.885580296014698,-25.634156760749168,11.667790203969071,8.867356420847353,-3.303270272072647,8.386196994794412,5.588638705357859,13.833188190503344,-7.6165586008847015,28.184904565966725,-8.093497816650515
-0.104,1.9701153845310109,-27.672122250604087,9.414120473506248,-4.166724084319082,2.0748454141511887,10.261218656256847,12.414785663636119,4.347142499409233,15.472019561349242,15.598046397672208,-11.522762065968045
-0.096,-8.532798657232568,-41.34396411331689,5.419174406461883,-3.6079271486224442,8.620498575214071,5.3375969960823,7.023133426900245,-3.9092146888927446,15.29666757737644,10.20387469130864,-14.095156572787669
-0.088,5.677072892093735,-72.02948236778619,6.5363292200024725,14.98942423296443,10.330792728910819,-2.278235168904184,-7.358575454775013,-4.224369413879627,-16.003414801960705,5.4858529625143095,-6.95085963568369
-0.08,5.551724326275684,-73.76066772814468,5.558488425364571,15.278666718477718,10.615353618340817,-7.274753935426842,-14.697640670053184,-10.185677229534054,-34.34439254502443,3.6912724650451816,-3.018256426226933
-0.072,-13.387564103787813,-41.54981947278018,-0.555302624697395,-4.800502993099254,12.827786845102299,-7.9963511628214325,-11.700435864295306,-17.927948369795175,-37.22985174100735,-1.5001124857872203,-6.44766573632409
-0.064,-6.123293055171326,-15.837889363531202,-0.5995323729437082,-11.79613669716165,9.79855443360913,-4.3533691836187485,-7.059551623069122,-11.116398362254312,-48.272180499256244,-16.996325245183872,-3.6235853159346103
-0.056,19.04469033293641,-7.234143037696315,5.27731897142975,-15.418796687516403,2.0808934687380933,0.09952379295384843,-4.597546167783759,-2.782614935719005,-55.4625526686342,-33.15624595747168,4.383583680888874
-0.048,15.817819786034248,-1.4459993599725245,4.427173393569533,-33.197156285744185,1.8315640651990301,-0.496896601379005,-4.479462137352368,-10.103713106545978,-52.386821271199366,-40.80156840003883,5.563228891752649
-0.04,-0.6287028107063402,1.071378642845531,1.2123471224837878,-33.20606369662845,6.614827582542372,-2.2758556895986315,-3.9733290686473905,-15.071152988184684,-60.31013876273585,-40.30293997157544,4.049253132394635
-0.032,5.517224797827501,0.41952150734482135,6.486263491423698,-6.090701081671742,3.0587820981457776,1.6123055610714645,0.949133317237403,-5.5522855211354605,-71.40658186421042,-30.23216953602607,8.375985799721215
-0.024,14.212511362295315,6.936125636189465,11.09069782881635,2.8067786696376427,-5.205063337453303,4.743954063630571,4.689114283526386,-1.942700409648068,-58.18900087761859,-14.08440733807966,12.360806832599062
-0.016,9.568735758725769,16.901218863933405,7.309655859189697,-19.11952857671323,-7.483909178838646,1.1766791420715799,-0.08879386372731689,-8.19144761207507,-33.39631393334358,-5.920589230657444,9.635158365602265
-0.008,16.42300964185613,16.446290474733132,5.850738435672884,-38.57914823320091,-6.918700447001288,-0.8149023763120543,-6.290513714970338,-5.692959606371975,-24.232591738223377,-10.390858197321597,4.46597065918658
0.0,29.531050523032775,7.6116027992591855,10.056030808003415,-47.297972222041935,-6.569569682038321,3.724066378246374,-3.988383504530042,1.2555968522607082,-20.712040355773812,-14.234707111923536,-2.5274100963567214
0.008,22.917523327630292,1.340723730415894,13.509649108801947,-55.30674154190296,-2.6487039559008116,8.315890399144498,1.5931835553709806,2.2206174220035813,-8.177352672750521,-8.747541771528802,-13.829729550679783
0.016,17.39619043885351,-4.713683337848843,19.95228841390298,-54.92590882072781,-0.3951806630601947,10.171627587652747,1.4175517346159499,9.685577296778417,-4.392397052929822,-3.4648192299466722,-18.038496811494728
0.024,32.57538302978281,-17.853090652376036,28.373165650377647,-48.95631792590692,-5.6615542475027745,13.53256406755287,3.0224050186637905,22.246455696940917,-20.06807376999622,-7.9216549706099215,-4.59333599961059
0.032,39.5908490313738,-31.57199386139095,25.14489378215791,-53.985484246474336,-9.24776484868635,18.504389499861947,15.38848256819725,18.53099975007892,-32.20747685569426,-15.224361395153053,9.936842986441514
0.04,29.62236212157312,-35.76577921028684,13.898166388403533,-62.04706414532171,-5.249983474586393,18.513182567647593,22.000618665283973,5.193884885700829,-25.45705495175199,-12.718747818237727,5.373155829433907
0.048,28.26512482122061,-33.57303208287521,13.578556489892744,-59.328395236422,-2.697733500476548,11.639010088513489,7.7572460980433355,3.8344238140310383,-12.878554964241744,0.0580133284078312,-7.9161321684068735
0.056,29.08080619679951,-29.735075387446415,21.750560889296388,-55.18503859580126,-3.9562494906105687,5.765751904025615,-7.112135627579749,6.309447280697608,-8.27671721168227,8.311230504308842,-11.701292829706542
0.064,16.555688998332144,-20.56544651712018,20.691809259144808,-54.98338132980153,-1.8680358325979516,5.064916691985735,-4.944823002823211,-0.517360080255039,-16.244377460832354,0.8763856565080513,-8.837303013241057
0.072,14.484280546994869,-10.665496585543965,12.791992585733952,-54.657365436183255,-1.1394898605869492,5.493411070343232,0.3893000121769298,-4.386924402175698,-34.4866240261448,-8.472167331140799,-4.054984707986135
0.08,33.38190612625898,-11.35232029432019,14.162189368050722,-59.73436031406012,-10.145432282189804,7.895889156753393,2.4777550714469094,3.478705122078836,-46.249451076426745,-1.086494027361946,7.419050378896697
0.088,42.9991099894633,-15.283061539146795,23.04176608871157,-66.30972147001263,-19.563923286953795,13.496190357504693,8.848262052598537,12.032223617482085,-39.5953785926418,10.506644036704746,19.192008495919076
0.096,32.67149979889097,-7.602245733122118,24.506436091002886,-63.4271112689722,-17.64424467505835,13.26279948454132,9.147394192164274,12.514588028707054,-28.41455218241145,4.860873333416691,18.568871585004327
0.104,23.918774336403747,3.9863608247517033,19.17714348952826,-62.21201097177725,-10.83447478580735,4.884949777209116,-3.9515938491131446,7.225099136863093,-27.12422298155615,-9.011521228391816,10.12468995532794
0.112,28.225923179110794,3.759684181807777,20.13549105442556,-69.75131897510502,-9.261699588906133,1.566872382146509,-11.940299973833568,4.5772023083386415,-30.301969305765365,-14.267315102128405,5.085629601872264
0.12,39.801229012313016,-5.600619460396629,27.729171884370192,-71.28999895856906,-10.707677426328212,8.702676452020194,-5.124562527824139,12.283763499277597,-28.252587374360374,-13.58924675976121,1.2617649835624152
0.128,45.53759534654457,-13.861645004332635,32.41771094952287,-67.56689734407406,-9.95943339747925,15.591688157621165,2.4850823672871676,23.305243530684223,-18.51566401824294,-10.928625941020883,-4.92429807055518
0.136,38.345067713577485,-19.780799623981,32.01980209849937,-66.27342496690245,-8.459356065169285,15.800501911006132,3.991314902713524,24.06930432262227,-11.158320074660024,-5.8138039172140985,-5.049327381602884
0.144,32.81007976518252,-26.165542936082062,28.302688407127818,-55.93422420331422,-9.099026944478256,14.694523911729005,7.067290628927509,18.74267780354761,-20.85469014974823,-2.8100003737114014,4.253280266007744
0.152,34.1581260363357,-29.97724402191758,22.422786712731185,-40.27155418063901,-8.851751038821432,14.597705763287763,10.710616074873599,16.706697018344304,-36.6228887187672,-0.9441418734463938,8.578131981824097
0.16,21.796245785477744,-25.895447211381867,18.735514244014013,-37.31154728168656,-3.5927691423154675,11.050784652532384,6.426457481214246,12.22434714607026,-34.58968520367592,4.0881470946813545,-0.4649277911816349
0.168,5.8878949597457275,-22.041875917911472,18.44373047712182,-38.40719189028136,0.873015370755351,8.553055222671034,3.7523139036691577,4.835224922535764,-23.346880553985635,8.409839124586538,-8.474120639138519
0.176,18.753078284399546,-32.23185391659942,17.253288130729388,-35.11991141727481,-2.298978465728639,15.507171888604013,15.778723461867427,5.994326620136106,-24.29451068532732,11.072260539638428,-6.420494719654762
0.184,37.54086412392144,-46.38097675796702,14.504154898584293,-39.396772974290194,-4.933219474311284,20.56129919716598,22.933981777477243,10.848212317805984,-32.66136507271333,13.320983084305487,-5.526073823180215
0.192,25.100879431965705,-44.465462771260185,11.592714904008828,-41.81129842101664,-0.08727825079521578,10.307243071050616,7.194191823356506,5.676547450612731,-38.599386765437956,9.44694435493667,-6.251945885808476
0.2,7.065946516267495,-32.37495856784286,8.54341623553046,-24.585089247770334,1.5866147239026296,-0.12453000582838693,-4.972290507537146,-2.2944752702254823,-41.801660170291605,3.951763295216882,2.8091513956142333
0.208,14.33681277882542,-23.687046146670088,9.04780330595359,-6.666028186182674,-5.156787140835857,4.170534448242773,4.089432920445743,-0.6912624288878588,-38.57728112304456,6.831830898121242,11.753630549054684
0.216,28.43295118189116,-14.985035707591317,12.471746029879917,-10.717200707121675,-9.280353029898373,8.93047878700843,8.19288060898752,2.80113461940527,-32.4111154754493,7.464623451487179,7.018839054716162
0.224,27.44432027728703,-3.1263184736012746,8.578202802077074,-21.757684705676372,-6.375388260898058,2.4292600364921095,-3.1155705530556963,-3.2824910995943197,-30.977665639960094,-2.215367407629901,0.07460413345720311
0.232,13.802664041550054,10.10620559164711,-1.3781609126856769,-16.33362985639645,-2.2099217191515925,-4.721376024007398,-9.367026637629015,-13.17300602026308,-27.418408142692414,-7.136715549602897,-2.147474471481998
0.24,2.597209440351437,23.817115573849385,-1.7584677399097084,-1.0898544737360223,-0.045739175922490195,-3.101262182062517,-5.075653186240225,-12.386812989411919,-19.371304671263402,-4.547674330347168,-7.334286485176097
0.248,5.095098291553664,29.94700803724313,6.331465444605072,0.24400010512863674,-1.3855923323012218,2.943502496993505,0.6197487479542898,-0.20881923547352998,-15.824160638908316,-7.740532354578436,-8.225719413845974
0.256,7.862228111756447,28.506086130791992,5.56816341351888,-10.13260583529888,-3.5757604392098323,3.2117163204899146,0.9829509679873623,5.956029573952188,-14.339538872999997,-12.272782676327175,-0.5134234575423284
0.264,1.3512649693922572,31.63826331406249,-1.8279164004165218,-8.244964440207948,-1.8696158567588401,-2.55495176855767,-4.743007250034263,-0.8633174963231001,-14.637730797053875,-10.30947287130114,-0.1892214536807511
0.272,6.001371151207812,31.793863329116895,1.1971417199855958,-1.2139177868207922,-1.9081730086200033,0.44443490530557966,-1.0476106720342977,-3.630539048465321,-23.640756836869674,-9.505181419492196,-4.392959379582041
0.28,19.735988449092446,18.634864893947164,11.227831767570294,-15.685608062294499,-7.758333829293753,13.705291643444445,17.00600853045436,4.342940096772486,-25.16443176018269,-9.50035184731893,1.738173728595695
0.288,17.59767093754315,10.59510658310973,13.803749438524898,-37.54551011842144,-9.783289172309594,18.676573650552076,24.411260412025666,8.32860872947881,-6.739772414106984,-3.7113377869835253,3.6654906020674964
0.296,11.29230478851418,14.162936490370294,11.996681131952275,-36.00454610837038,-6.0615305557041035,14.075079731376062,16.22906879797639,6.127977424170924,5.314622404480125,-0.4013022961954078,-5.8731691292400745
0.304,10.560885077676955,11.46647291673965,10.922595060070655,-19.180543545837942,-4.771189292501615,11.303622448250795,13.021238963373087,5.0928308723785785,-1.4488817729783545,-4.984927614378723,-2.7896185683045442
0.312,-5.149870630293541,7.120959554954227,2.67782438040924,-9.704147918562981,-2.9449355235978505,5.531864734436381,11.189558425851791,-0.5644358761042018,-2.2736589571631036,-8.12564862298308,9.978312487360782
0.32,-17.01269914170913,9.300316599054641,-8.18074011389552,-10.422269235464373,1.5722490015521238,-0.904854544073048,5.517784842648173,-7.818260797307307,5.817883519226058,-5.796504099988544,6.159861993531777
0.328,4.691409596727897,1.1187806929512358,-3.763257282600958,-15.654534768405732,-0.20694676649717075,6.156828478491177,10.91342897422214,-1.6907834773073938,3.54758738445739,-1.155239090000762,-4.714542384249765
0.336,23.297056463289575,-12.452199514953193,9.76469915874731,-17.995244121312123,-4.896118654929776,14.832189822654547,17.39852288672412,8.820270735276925,-3.1887176885094966,5.013231699310859,-5.759791641225486
0.344,8.993052637683567,-7.582493946452955,9.266212481155193,-10.405252930326785,-1.6081182995425973,7.36280286246769,6.129516966532845,6.561290993103554,-2.047260039085936,9.501631667879176,-7.208885642670243
0.352,-5.491062819214646,2.872720985046622,-1.7192164099371405,3.7854735348151416,1.830563695039594,-3.2711820433041248,-5.593881684857937,1.4927631645022004,-0.148096711463144,10.955169331037645,-5.348493470098805
0.36,-2.9508307450661952,-2.624090442639423,-2.2965828192046724,11.95034009851296,-4.000097465362806,-3.876315612343528,-3.803609867016146,3.4699989398378466,1.383101731376873,15.560308437113306,10.372350162024102
0.368,2.5334318346130793,-14.92193725447405,6.031771149713443,0.7244409701915671,-9.31562989761549,-0.18279743051438402,-0.05226648222009608,3.139709106435524,7.734834875045437,23.210149491705643,16.75618918776253
0.376,9.647852592447547,-22.458843368642807,9.684671598216088,-23.751602873397687,-6.159580676128563,5.000235698112801,3.704740562956981,0.7313118652530712,4.478095726910631,22.357440139841433,1.949846029745405
0.384,10.131268619053875,-15.81058049106546,10.59940481070253,-30.074034306197504,-0.8816992509489856,8.852345133163716,7.857418258190462,3.6483212979885487,-16.68899273077462,6.329531156169968,-5.893907195925205
0.392,-5.072374398897708,13.723280812869701,13.626426987525363,-13.050595898319129,0.782088349468461,6.496478148121209,5.695683563614798,5.176892110800166,-26.897267586302018,-14.39010930649765,0.6882200997300799
0.4,-10.748137355996521,40.16755064033546,14.93280240490174,-10.854922378439216,-1.9145392480139631,6.239605468364086,6.282334578882997,1.797518241172883,-7.7459646270822535,-22.919090498406604,1.6064480654322157
0.408,6.304600164130683,35.31388988374391,15.733980647322488,-30.31866561864384,-7.361366903107051,12.672241652475455,14.901223785869371,1.0570202689985215,9.060845871692655,-23.21876593931807,0.9544731418738375
0.416,13.74578458065168,18.381370343356338,15.767970265955125,-36.53861277504811,-7.87921745817958,12.5239345173988,14.836343705171148,-0.11479307715108265,0.6170070887484159,-32.572571792432335,8.797344364023393
0.424,-4.271308982649901,5.337032276081447,4.538789165334396,-33.554424198518106,0.9582099333806341,1.167266150619221,2.2860122171498847,-8.617498144389128,-10.742923817910896,-38.306763079076035,11.203402981135145
0.432,-18.008029171247717,-9.39017820541348,-11.374337310351848,-48.41118821928781,7.770938648287784,-8.737946525352218,-8.755642100783938,-14.149673615609451,-9.85268657382559,-21.156802903329307,5.448896414524865
0.44,-8.98254060056478,-1.2861748917588232,-9.76437275235589,-57.78538584439208,1.1240431011430814,-8.982329034052249,-12.057629218245731,-6.005271975958942,4.556689711026188,-8.950656564862209,7.622102243175118
0.448,-0.7115686623762386,34.04814707686316,2.414238618414896,-33.13623144546284,-9.72136455392803,-1.8257128455313125,-3.6836459392957512,4.817188225786558,43.17547790094994,-18.795059438163705,14.749598527293827
0.456,-12.593065585443115,38.49460519113991,0.856163521656866,1.148995419007143,-9.057775020655175,4.87776953658084,12.398289949352769,4.141738393849858,77.54815921617359,-13.35480434311025,12.220314318595142
0.464,-22.603423836512885,0.9589134881127368,-8.116757272787174,23.251711550738587,1.5002745870361518,2.353573710228861,12.462528577105601,0.08843136267962909,59.901923538088845,6.206500076143742,2.4108573842935876
0.472,-9.026737252831808,-25.914893850769303,-7.982855488856927,43.537388584832065,10.064708558353182,-6.9444156446052565,-8.688565954221911,6.731886102234936,24.513546335753528,1.2727666642178435,-7.240462763901422
0.48,8.835873138007079,-42.01441851336673,-6.814026104862622,56.85034873386435,12.275279865987725,-11.677385516944096,-22.752489132884445,15.59351166178924,26.819238872592585,4.378269358689394,-17.51973244152701
0.488,12.02109121510229,-58.79768984043751,-12.13675969141734,51.06521886049426,9.766883664576572,-10.133694919421375,-19.097179814119304,13.045250804406548,26.90455251768455,47.67044323073335,-25.515952557659322
0.496,12.497900486239278,-25.98410673321706,-16.741216118444395,42.6427083432346,2.6688603096461017,-9.225748281599444,-15.094672751068279,8.540742225774897,-21.07380466262836,73.88929910290446,-22.99278373717522
