time,C3,C4,Cz,FC1,FC2,FC5,FC6,CP1,CP2,CP5,CP6
-0.2,-28.519313318375275,-67.72875307444289,-25.309719708157083,33.88535263292789,27.0281293710158,-16.346169383633974,-15.460946327252607,-6.394091979711161,26.57290184321847,-27.813192807670735,-7.103024875182371
-0.192,-45.31992671626747,-53.29498896074293,-32.85181162558872,39.925348497026334,29.37456458046507,-24.50394070272622,-23.525635535970167,-14.781671080599635,22.02833765851253,-24.628591758601534,-5.152956942749869
-0.184,-28.17779006600345,-50.687127422523005,-18.722989856251893,39.338484970339515,21.079749294431736,-8.473803638458147,-2.6729581526805295,-0.8885422360405658,-4.754464670137809,-21.018415463104365,2.0021598712858126
-0.176,-7.313307561114622,-38.1872107448438,-2.877791662647417,45.64133099818899,9.800276527439818,1.4216361576376648,7.153537935713781,5.721522536772682,-17.145896648827957,-17.848119066271995,8.486100943510944
-0.168,-25.26186480929083,-6.447768252997982,-6.980831357826916,67.46354039454936,8.633853284109554,-9.639306428718097,-5.978707601035005,-10.890524864390901,-6.629779071369778,-6.068738949526519,6.362891937425622
-0.16,-35.86930589285054,18.421748175299665,-14.303507171765325,84.25403694482794,9.833207559285517,-18.768011205791314,-17.735688072283903,-14.581205055459746,-7.329552448369617,-1.1522202135627375,3.836647700636002
-0.152,-9.966898086924257,24.64146418235487,-7.122307920280909,81.12738996504174,4.028820056511259,-12.471015882699389,-15.119676655694716,3.738400594905063,-12.130798291779886,-11.173362578478978,5.2743489137031245
-0.144,2.6378191948771454,26.244723631126504,4.0217731675259465,67.15656012938187,-2.046529306599133,-2.69824793025387,-5.5670254978784,14.44070399030906,14.080219694955204,-8.555920346006651,2.562951891068795
-0.136,-9.650905334556663,24.71428115180941,5.054047166393729,54.27615096983007,-3.551851828139682,-2.0297665739340327,-4.134764467620449,14.4542454909573,54.049810009435404,14.774729353182655,-2.7893123955264962
-0.128,-4.025437264196441,15.804496819615618,-0.07093926797775624,46.231669643840696,-5.533770241455198,-7.4158937045646685,-13.509593134312855,17.712082198911382,58.84958771855592,32.54303804056659,-3.0417467803032463
-0.12,14.141613738314351,8.849816569282707,0.2041601667016315,36.01637123233775,-10.549666944244168,-7.851936807621474,-16.935752464150376,19.688324310071255,29.72798026629734,42.963805205105,0.9459191008132635
-0.112,10.511027947328897,9.19796516720387,5.051611770355577,17.251898509633715,-14.034915570864825,-4.418369821337855,-11.609361049196384,15.441282816700417,15.539315584934757,56.82828561411491,4.040508592153097
-0.104,-3.9056870769406764,16.422281063603684,4.066068511872956,1.0702868290206076,-10.620485618768441,-6.501838011072848,-13.84601202100636,9.464206201381266,34.82726209870523,52.052429109017034,-0.9600029727273246
-0.096,-5.364383171171214,32.10292639052356,-1.0281777126927174,-10.079606538688445,-3.7349540162107315,-9.492096420181253,-19.63774325299992,4.907579234027683,56.39797881175625,22.601073902699405,-14.463616798112042
-0.088,-1.3681739705696492,42.810156624429595,-1.1067605550501345,-32.59831326048778,-2.3326133469940027,-6.162241336373348,-16.235211570738187,3.6914368551308145,61.47651879176933,6.750336597135916,-21.409741550192553
-0.08,-1.190813064301169,29.59607003250898,0.5384732198498057,-53.56708337164947,-4.426125982230943,-3.347496288210429,-11.324008914823454,2.419988668221747,58.78287814386178,11.684827901624637,-15.415651189186939
-0.072,4.114435614398418,-1.613747649468952,0.529025997373388,-46.84904793352022,-2.623959149700983,-0.853076990181604,-4.940666510134493,-3.1969861173429455,40.53974882409396,4.597055409966195,-7.450727585918147
-0.064,13.872221547908165,-30.511606370363886,4.051751524553693,-34.74191209248861,-0.286007923399953,7.744538258237065,10.278868500531775,-7.024812621925778,2.6799351254431607,-9.271015560521256,-0.7079878548605625
-0.056,10.940964346473633,-40.40877614067447,6.834818268091654,-41.87399780436559,0.48676434063255314,10.873595256683942,15.613419834434756,-7.448293938472663,-23.99607186477022,-5.215232964129462,3.059492143060335
-0.048,0.9718301339694958,-21.86759420690096,4.569395544239258,-44.741335466631874,3.263644912143217,3.6125434484115053,3.5843493890379854,-10.405448412796913,-33.059241995426675,-3.4257395599215092,-2.556914075709447
-0.04,12.25925736950778,7.766220530098604,7.715408816765677,-38.48631067334967,-0.11467777300985935,5.208227365195369,3.565567312578393,-8.96761569149388,-51.50116397228011,-20.0544035370084,-2.5002596857286656
-0.032,35.348529198720286,18.288418168946333,16.068367567266538,-51.40176919005429,-13.13370377881906,17.563248108877506,20.752272080335523,0.3555419146746679,-62.38558367970158,-23.801178828931967,12.66029607566645
-0.024,33.90247176867391,13.566689057180595,16.88134757769633,-70.2357119408148,-17.228558761810934,22.312820117553446,28.851181338479158,2.3058111054677153,-43.41545780225264,-7.84475013420623,14.272321843835424
-0.016,20.45979988343261,11.556164249710502,14.193587636726999,-65.64803804918151,-8.193394384209318,21.763226619429908,29.137953966952644,-5.07834005095279,-41.56292864293911,-8.679096227971597,-1.2799208601355847
-0.008,24.397329734001005,6.825028246636757,13.708780543773308,-57.70699955873357,-5.7631170076155955,25.074597700215698,36.36028467241692,-9.665196284586594,-78.22500272233773,-24.984499482227644,3.2178588267193406
0.0,22.376505854956516,3.9391227626275898,6.886219359052367,-65.70829583698072,-9.354678291961699,25.398778093516388,42.93631619729691,-15.018397583757482,-93.4165327613462,-23.261103655270734,18.110365726455047
0.008,0.9487865431316561,19.516842911644765,1.2519236869009198,-70.69568507512712,-4.823086029879747,25.368112858624816,46.50572689766208,-20.98991326222953,-71.08359663204527,-11.547976851877594,5.503260166657481
0.016,1.0434691430010248,34.2435791692368,12.996929309140226,-69.64000599499735,-2.563345347805689,33.188519800673625,52.156539749151854,-12.816269776316629,-59.90603293745983,-14.813635079364559,-11.192784869051753
0.024,29.69896363028464,27.435340066408237,27.742877909835453,-72.948840841051,-11.319929028884003,34.25426577552546,43.95503607568789,1.6020523510258387,-61.88395551517987,-24.00486037880779,-1.7483431939173855
0.032,40.07584014134768,22.8540270568736,24.493672034993462,-64.29962109789625,-12.91348343856588,18.872418444352935,17.110105721725372,0.5779195221140188,-58.168390686079164,-28.538009698540456,4.19981770076586
0.04,21.55881532525136,28.44973674108187,14.361303508158462,-44.41391242845346,-1.0218023951143953,8.076819519143132,3.407916325775157,-8.936678703196614,-71.32635915907989,-33.9666263156932,-8.348754324727807
0.048,9.270704262632663,14.7193072789818,16.017830952491327,-47.48028679421921,5.325453075472802,14.945446802937733,16.140600367948952,-9.012190425413971,-94.36091944596838,-32.992875656916944,-11.588047870862285
0.056,16.589694190137866,-8.98067004449869,24.054749211368094,-68.81203045695759,0.46894631478928495,23.072426653806854,26.59007007109827,-3.8242486600415337,-83.76416898992471,-22.02182954761045,-5.855474436785402
0.064,23.713849336629796,-2.126953627719047,23.47002349803568,-71.2901160402027,-2.473675699519389,21.18774087913888,21.81593554190605,-3.5387013699039924,-55.6038277740644,-21.102394881153867,-9.605381230008973
0.072,19.240578518789555,25.6320752422287,15.871508455564507,-57.94627224993012,-0.9312877029373633,17.368901319814245,18.720555587906706,-5.358690333408556,-56.66999622758659,-34.25496066596624,-11.073981385199362
0.08,19.019162339833546,35.618329691432784,15.651580408438166,-49.35122633876438,-3.2723388051890825,15.855957666908543,17.670529473662956,-3.5701618350635926,-74.94036521589626,-38.951820912740494,-1.5996945345293867
0.088,34.44161204268267,26.956593950801366,24.100426793905246,-40.30457271332979,-9.609528605447352,13.593000079806757,9.268590549133696,1.1700733405168688,-80.12366121743047,-31.73842023804437,5.511696542277678
0.096,45.765689625846086,19.002918920396926,28.534802277039176,-29.927504512193117,-13.042991873098378,13.55815031003808,6.5337329328051466,6.160792843606576,-81.32636656524502,-29.38752438549648,9.742722357282165
0.104,38.091444111582994,16.320577225594132,27.360832342457538,-28.16954011138984,-12.564392839492026,18.60278621574725,17.921421588344604,10.6015431927023,-87.68576430526579,-31.04480418606918,16.94497564312538
0.112,30.165278807447162,19.97203889857377,26.93431843196239,-30.07737687590855,-12.610627642806415,22.92341966836565,27.234946436949173,12.007942721089332,-86.85760680837842,-28.909966455285677,19.327935140113922
0.12,32.94739376467616,32.64691366111776,23.775270357974563,-27.735631207206104,-13.247490651588567,20.885284352428005,24.51258315847232,6.566932443445021,-76.64845176924432,-32.75789738029192,14.890463523796276
0.128,28.128951044444644,47.104580534783814,17.527614104707766,-23.55824523098598,-10.30756892174561,15.404915847810516,17.903166456406506,-2.199632516448601,-61.66952169312992,-44.15587191711252,9.01276889994375
0.136,12.584060276394613,49.64580857303088,16.447325735343103,-26.186389847214137,-4.807981643220274,15.7216119755641,19.73370719873218,-5.475322928775293,-39.84472296372142,-44.98780022802125,-0.4755653343940083
0.144,10.661274286817616,34.24217827368368,17.31558732154388,-39.459092770000815,-2.50622753539379,24.61410757549622,33.64986940826931,-1.3997413116399775,-23.75511123360947,-37.485994506033876,-8.136466830397993
0.152,26.21990441641577,12.207258042294232,12.191831092745398,-41.1674932667096,-3.3535901620807187,28.03240472465205,39.959291195500654,4.814264174735057,-30.660470157259894,-43.1085155249335,-1.7737424186893018
0.16,33.07242203424971,1.110743830207181,8.849162442951293,-16.076182597620672,-2.333024993102871,18.09756444058528,24.162462283258,9.91550161371317,-43.61215596053302,-54.97116742382769,9.167936878554494
0.168,25.981446600562787,0.5774549839774742,16.021443887986,-0.17265201087715115,-0.913641625954737,13.792186644595436,14.153147343254117,15.186144851214838,-34.65073522410292,-51.40222109906508,7.9243275417509365
0.176,26.712194497393543,0.18118236247022212,23.68736318152458,-10.859761349221,-3.572534898591072,22.06463879926999,24.333447090025665,19.848084658071514,-11.387849126659523,-40.601363396998345,1.7373797536853421
0.184,29.69173786992284,4.031265654081527,17.81989990799907,-7.698352522807213,-4.789272139081404,17.745213618437507,19.011094268538855,16.078205079596884,3.599421609068245,-39.44391926187377,1.1847561599179195
0.192,11.31445985406254,14.760603369231802,3.600576186040184,6.861483959125754,2.148181659589117,-0.3653320682185815,-4.246190374591584,2.6662460721659427,7.235140086609709,-42.964269299153905,-1.1283157495309228
0.2,-7.073950734950497,15.557739138366243,-0.8649547526240002,-12.057149379601997,8.895841810738247,-1.3331229978800658,-3.0055064980676365,-3.6707631814404054,4.041886272915105,-44.38856815431519,-7.33053720499807
0.208,9.452632321340428,0.052511842989395784,7.703510966435443,-42.04784095592434,5.402339791530698,13.420948374966734,15.776235726749677,6.297451430912031,-5.702429874326287,-45.34593042987532,-7.363528475856312
0.216,35.70248526343343,-12.588570255349058,14.054985528917188,-40.94006346844485,-1.6977669454826019,17.200879408025923,16.72779469590588,15.45660261034781,-17.790979570221648,-43.674161761519116,-0.522711472478517
0.224,32.35709543861715,-11.07090269658953,12.031528650429456,-31.050422211266643,-3.0562946416400325,11.993746723997969,10.534570543346497,11.891764020808498,-23.324244166594408,-40.0305623821826,6.0638375078109625
0.232,18.93622478799261,-5.4162279876173525,10.722402606652444,-28.724037670629404,-1.5237082949912741,10.113234989316918,10.53227245769509,7.675350513498665,-17.95865092573163,-40.988961732011504,8.489160605829976
0.24,23.496334043940138,-3.22965368297309,12.73256949281488,-15.420476490483289,-1.0045892786726438,7.532373513613168,3.9746513707294273,9.624925332386077,-9.56829908261496,-43.86460261817256,4.234510990247367
0.248,26.887572362763734,-0.3398374850203932,14.231088667157394,0.9731768801628254,-0.8970724003527992,5.179108907852037,-1.7281716316447648,10.699442848741846,-5.35481030993934,-38.379061390698155,-1.3719925380613798
0.256,13.841982241465749,7.935956038235446,17.263719139182,8.154027066128844,-2.9993695478251405,7.4964257166814035,4.0328296646811435,11.826209967732344,4.6713051340881355,-25.88162162298033,1.9716342950129937
0.264,6.710165694982,17.410161874120327,21.204437591332788,13.751587679960444,-7.0006032155553415,9.336445234198324,7.879021865914576,16.163609478367047,21.093176815064353,-21.08769829624226,9.05637966746002
0.272,16.374253313128527,15.995834974579452,19.33610916150948,9.002162152439976,-7.975760720192387,9.615758972066624,7.693997140558213,15.491332136662914,20.246601242834366,-28.019877096652717,9.136029573731381
0.28,24.07840724454816,0.42429767006854163,12.32448114639129,-5.365495932012435,-6.021039580896734,8.430387271004486,7.24513498449854,7.6623850947580925,5.045636935509936,-27.771726628590248,6.7705528058187605
0.288,21.925266179038722,-15.544506785837598,8.713006052386152,-5.969519644309117,-5.139386621998114,3.510157110202178,0.10241798167670052,4.707180373360803,6.3594564945906,-8.137191234272933,4.542140615876386
0.296,21.965535062010456,-22.98602207163832,12.624988320106166,-5.518106197021703,-5.654220002370285,7.1081555628056154,3.360906071289489,9.910024627960095,13.097964875319192,12.793044911007891,-2.9415524182331296
0.304,27.159137041444296,-27.728424439631222,18.020256190210077,-21.783636695318886,-7.169971655755848,22.85174529930736,27.983731605009726,11.564408795623644,-3.876354573143055,16.77894665375582,-6.167815576727775
0.312,24.985133350197394,-30.536350765706846,14.17607801197678,-23.336512101674256,-8.659452053100468,24.52403485488395,35.582715871159,4.625345379101429,-19.207235649018568,12.483291659559969,4.2553723204710625
0.32,8.914506255510913,-28.08925952749162,0.897214379590184,-3.615728631586649,-5.972144048962601,7.394336319951051,14.982358779866706,-2.519468281622947,-4.617874870722535,12.162211344495637,13.487991959928008
0.328,-7.7355559720118485,-29.38476680570245,-7.700210752903299,-2.8018061769583222,-0.5642339405094913,2.913071617286425,12.247638803484415,-3.10623879750775,12.838054353859762,10.638996589092603,12.489199358537988
0.336,-7.011113133598782,-38.41740475494206,-3.9192008585183986,-17.296918871153068,0.39666466674855316,14.110660446865761,30.37658669244018,0.9099223852306907,12.124168878644925,-2.9016174944314552,14.931009692794337
0.344,6.207846472049163,-37.164589944157576,3.5637110065448265,-17.458659767032472,-1.3301504686502812,14.959291521423351,27.683786595449433,4.569605190897508,4.810056956974557,-30.495215926299878,21.881886699391252
0.352,7.695464734878593,-14.165991166086275,6.347337827958266,-19.037007407251373,1.8511074789747846,6.540777082159604,10.04473826600265,3.3102535075088433,-9.477880706192504,-59.046756197337515,19.18044530517234
0.36,-8.965056767314874,11.6578967765105,5.393017406032096,-35.85070178005488,7.7205676734981905,3.469659228998241,5.344257945002424,-4.376845521216886,-24.393030351176982,-70.16201283799138,9.956682258632325
0.368,-18.51073594850391,18.10131076561079,4.4622302704106165,-44.121842878645936,10.08136350239427,2.2139094729236475,4.020438395677678,-11.140317315290602,-12.491960193451622,-66.58128477710606,2.297280746538885
0.376,-4.7625569033627135,8.862030871040943,4.698918914560752,-35.419589029090396,11.058446684377062,0.8277713517715453,-2.46290618955878,-8.18804699221316,16.09063101133307,-65.10975154537935,-10.157789470807694
0.384,6.527522636275229,-3.5402378121452633,2.058374421255554,-25.985161152060286,13.670138043950892,2.2513823480892503,-2.5051408954607552,-2.3057973334872597,25.015027422556198,-62.50207553256521,-20.411212498598918
0.392,-8.798521542419984,-16.338090625050782,-6.025599082141619,-24.811850827155553,14.678933364314513,-1.1017174056040466,-0.9762981378714485,-5.985832867475983,22.281324353893442,-49.423319100229165,-10.211581898975675
0.4,-23.507195047859582,-19.89265152794802,-10.559543710453955,-29.59151091715069,10.65885103293469,-9.368170975110209,-8.651748237632233,-11.12783825912133,34.66940213723916,-36.525972054793534,6.824960643241753
0.408,-6.6018253332550145,-5.9175077314839015,-2.792734834403975,-25.73152013177574,1.4275381432304866,-9.800708888777656,-15.509867609033387,-1.5426354527047297,57.94063442047447,-28.04097924952456,7.721393753710003
0.416,15.675708260346477,0.5004527402397813,8.499939929595202,-2.47604764093245,-7.217877139578222,-3.8280593342331075,-13.324438953293871,14.137423897007977,80.34230677515805,-16.437048714486743,4.731828473510818
0.424,8.461186181341667,-22.15781205554323,9.953883998505761,21.131548208728166,-3.685195050094614,-3.7443344069502333,-11.60336096836849,16.214789422492036,87.24658364883985,-10.693480374461654,6.283971690213521
0.432,-9.254111852257038,-47.56005585798417,4.191253800166301,28.74663462633169,10.88092880348095,-7.444684133102736,-14.798856795772789,8.929213053399435,57.84317770775305,-11.779934195401225,-5.367047228345589
0.44,-6.507663578726336,-58.139967972911734,1.5748154023455694,35.94146069653177,17.34406840225585,-6.036249894293123,-14.094705473195008,8.521646239909597,22.151792482161405,1.920044485277319,-20.73144200962154
0.448,5.273084668712014,-72.74047174884608,2.6498440418564906,45.06573197027951,9.304295032568495,-2.430003892050385,-8.231343382921583,12.559323459492642,36.238983901310036,30.37050331215187,-15.814967939771952
0.456,2.964144905589524,-75.61560629620487,1.0788844345937285,31.35272014790176,0.39132028926473716,-2.695659837953312,-6.0168410939788055,9.81905359199749,61.373166675537206,62.43231026957711,-7.9164336606545325
0.464,-4.401855151094053,-31.49642331631392,-5.143124220408941,-1.2963800026301902,-7.121128280470949,-3.752386989627204,-5.559435628499021,2.7281968480157937,10.866028959964577,103.34258662771117,-10.62537653996762
0.472,-1.0128371442691904,34.46186332290732,-13.908966215966673,-15.225229104896417,-18.590046564389784,-3.5515657431071714,-0.4848623099122187,-4.14685927556445,-85.54551559948615,124.67970767916447,0.3023660336988486
0.48,-3.57866492884786,86.75482485457171,-20.947094759396293,5.896254468702262,-20.051972378443843,-7.071864042946585,0.9838118719013491,-16.857565703281185,-136.5344515260316,80.56594627101177,16.329286875708583
0.488,-27.514950253356535,135.46880115542066,-18.524147035269284,41.44962447163848,-2.030113992263858,-10.018820298791194,-2.268353340844596,-32.71344476926912,-151.50701441399067,3.596028716593579,-0.4205381964187498
0.496,-45.43396721561422,168.399166794113,-7.698076336112668,65.28221334374575,15.42634481444434,-2.133046676485313,5.847834346097898,-37.617323240330336,-181.95675433785556,-37.36858562317899,-31.585705519611803
