time,C3,C4,Cz,FC1,FC2,FC5,FC6,CP1,CP2,CP5,CP6
-0.2,106.07971427673408,-119.48318679986524,72.39623741450775,-148.75381602522205,-35.270214980545695,41.50909896247251,31.11040651095807,64.62650817306621,87.40768085978583,-101.42890825214941,72.52651266737239
-0.192,98.73959248513579,-138.45256547058253,60.80442753238956,-127.9533495147046,-34.476378528184796,31.711413121495625,21.404128497727914,51.860822801224984,80.47042924051547,-61.22310187264031,70.36056137441157
-0.184,108.71320274928134,-145.8157973610706,65.57784336443372,-138.68536980682546,-40.15847101253827,35.5684189874698,24.859021020201894,50.59967322337143,70.23626539942742,-34.64304569204611,67.88539364604362
-0.176,129.91335532096116,-124.7548559338648,79.35142909395553,-177.09894129232367,-51.44124705582801,52.1119728020184,41.48836909126624,65.63160615151773,43.932253957946635,-1.740943327377807,57.78424571841309
-0.168,132.5806408923291,-104.72240747054799,75.89755394210763,-197.66613266803466,-57.50678872186371,62.94573312116077,59.887430879097366,70.55421453759813,2.0646440423923127,36.77583109773981,52.8272448502631
-0.16,103.49493761438417,-98.63872222605318,58.64778317542897,-175.0734656921551,-47.721461297364364,49.71828377516824,49.3776099096638,54.251496745191716,-31.990317887093077,41.75833726113341,53.70288165206362
-0.152,79.32123612673516,-87.1717835474159,53.417241856022216,-150.8998476676569,-32.24769565234832,34.96307012342472,27.18205588529294,43.88318959140342,-40.93226414403109,16.838004295344316,40.241196319823665
-0.144,79.02167054194653,-81.9684189637367,56.148908238921905,-158.73858773298508,-22.390405510728794,44.47154456458116,38.38547929240047,47.114106522847564,-42.08945188578037,-3.0907915115708167,17.05964082725277
-0.136,66.32382634801868,-93.98270247898917,46.84765838968872,-156.55116137907768,-10.710184429284737,51.786142613290785,56.25563120988995,39.22261970043636,-53.69626133304157,-18.063419019910384,6.379017924379067
-0.128,36.11140471238364,-84.8058333814693,33.467170091379884,-124.366952050879,2.1974762607493554,36.0295284697699,40.35266410991457,19.12723532092358,-73.3053955585399,-37.48512496953512,5.788117903066775
-0.12,25.18252390268448,-37.49311794689017,22.178681686761216,-117.60546340725331,3.2434833459387056,20.89645141409779,20.41453921485879,2.399456153226738,-99.62235643869037,-44.39958215387767,3.9670484374159956
-0.112,17.546250691474878,11.270478151641655,-5.8274470923933235,-128.9978961703018,0.11350926004145573,8.179141761363377,11.438942458737365,-20.224620405999058,-123.39968966178819,-27.61333341962349,2.7570912493527437
-0.104,-24.81792130241534,45.12761225371429,-45.43214218168421,-79.28070207910909,9.597325458097334,-21.473477346385344,-15.651472313908016,-53.75447583922353,-115.32934098375941,-4.664855480798446,-2.1675643641260955
-0.096,-75.93665015986764,79.4020498608118,-69.59742104367223,10.813181349814037,25.298621067509252,-50.782925447932186,-48.71080736382182,-77.50352618284566,-69.2483283210393,5.011247761989605,-19.580132500546338
-0.088,-103.3012806158543,114.94535464755593,-84.14395478692411,61.811881736200625,35.4292715728022,-64.11011532016838,-64.27365643732594,-85.38888099786074,-19.14510129013825,7.694114780616311,-41.970515421768305
-0.08,-116.31534572748012,142.03819683131738,-100.42969226190684,93.46950460756098,40.95661678157041,-76.45849653860733,-79.82883213496494,-88.42427123755407,14.449035301958341,17.798500925984403,-58.463773099085806
-0.072,-113.21111268989151,147.85283837639702,-98.50815092194703,143.09946938627257,40.86090093377258,-81.98738508125129,-90.97142925357151,-84.0499577757679,43.576933276533325,30.545556309404102,-68.21236554057353
-0.064,-97.99116535564518,119.94672819879622,-80.92013014882582,177.55414947936706,35.533147826473346,-69.6249184557311,-76.74531362487669,-72.20369122475205,68.56668048210135,44.64535614177918,-68.17609217419643
-0.056,-106.92662269678243,79.95261815466284,-80.73948542214465,192.73620793718766,34.569969369932636,-63.86730396789633,-63.02085609571167,-65.10694413108179,72.00729398910036,75.03222602674086,-57.149302649701234
-0.048,-127.54870690219258,64.05259491560754,-90.51052305002052,215.64989723616432,37.18507371348266,-70.94155093321572,-67.51559754596337,-59.60902821430579,56.02353245790169,106.88816407367327,-47.74914241061961
-0.04,-107.2755474466745,68.37396418404973,-75.95205801589675,225.81646110911973,32.35825977141256,-62.149212857598876,-61.59525832366901,-44.12437995179389,39.14502834688692,100.2203631738339,-47.26349592630485
-0.032,-65.30964317911133,75.05928815602049,-41.973281347381885,212.41433550723264,21.834954484432878,-37.11424454611309,-37.76445718361147,-21.67408813895117,31.032671312962375,57.72603154287665,-42.93995035038292
-0.024,-48.41804726413234,82.1351494374734,-9.867044050421512,197.72411839577393,13.115227926923726,-12.912842737042102,-9.679647646138966,3.889473307452123,33.41066119398964,13.759886873708304,-25.910803875839665
-0.016,-30.989558339924788,70.89851221943584,22.81859532700865,168.45022781001626,4.774036485663571,17.323870528746667,28.56799948971878,32.78766152038674,35.93989117341685,-27.435364136565997,-6.396940279339617
-0.008,8.21223199016735,28.114312499721237,56.85243188170724,114.61870179878909,-2.1157526622811753,51.47744423951644,69.3738698580381,56.149092031126756,15.860436220218185,-75.1574766758331,8.38689665635064
0.0,26.801014027735615,-11.8803063067198,79.49536832890594,67.51354913302957,-3.029274407834757,72.73035874736568,95.65918049579714,69.96670832036213,-25.364929751235355,-117.74767375289551,26.314229366275327
0.008,19.09483069283209,-25.663536830814845,89.81275544452072,22.88021987340679,-3.4220261175963085,88.41249212105846,121.24658469236024,83.40502794434975,-57.75518569049195,-149.0089468710463,50.331668120628976
0.016,28.34160218602577,-33.563268481516,96.3941897106777,-43.55489357968013,-8.284936926709502,104.36658095265537,144.89098994355993,95.17163166925108,-71.63140215446232,-177.54208353263695,68.10663640960765
0.024,44.98413093795798,-35.269976816850445,98.6601343078761,-97.6626127504524,-9.838680057786625,102.29081643708908,135.68225823867115,93.0485000947418,-79.01068287208038,-199.91013512135075,68.71375421857356
0.032,37.249542684186906,-13.641582062088174,93.27058219185298,-111.25142895634686,-3.691011057911226,87.25340263987646,109.90585113706229,79.84182332734213,-79.78023371002104,-211.95508819923083,55.794452017643664
0.04,28.525157283173332,9.88770130509891,85.1418401707844,-114.82169432470455,2.6277889934277536,84.47837750739725,107.8454232051268,69.27323090590467,-77.93448702235612,-225.77015768203853,41.98931797781592
0.048,35.60523272987003,14.734099624183608,79.73284544060573,-116.81536334259395,5.44619431672107,85.28901103450801,110.10758038275002,63.558876368355016,-89.00472377342889,-241.9057391052013,36.8367996604793
0.056,33.53704955636632,17.89844635616458,75.71505908933854,-98.52739791474141,6.686300415576814,72.73087085473195,91.05641881637368,57.42547891923359,-102.36572816041097,-242.3841842509336,40.31425622478899
0.064,26.70341205024197,26.13002122132021,72.44865839761042,-83.19676206047764,2.7437990386855904,63.86480479893879,79.92081452911353,51.780277544341,-94.83992622084511,-226.2049995141854,47.284619311621185
0.072,34.52271580680193,30.560222851117853,71.24830985401559,-89.9194599650731,-5.330119406271027,67.40073124328143,87.50560912929512,47.74834701375908,-76.29607471701793,-215.1751614269563,52.78631048836408
0.08,33.12955444528033,39.07378198470567,65.69788213902696,-87.29280447268896,-4.265563365195344,61.04598116978317,78.67294316606785,41.014085630842146,-62.766989338970234,-218.90763792437915,49.16779666753835
0.088,10.67834968297476,50.61662838321852,51.72191111499617,-68.01614584431444,7.6400527924878325,42.19326127601655,51.208265037954895,34.06066790949259,-41.012170684350146,-217.37841445089208,32.190644778923115
0.096,3.832392139175098,45.788224186598484,42.855025516853125,-65.57501666438714,12.827045267310774,35.10185542296879,39.12280876835774,38.814759994620516,-8.787114099740272,-193.8950243689049,14.705619297866171
0.104,26.858742859370018,21.72020133513111,48.004511446534366,-78.1208084728237,5.504904742706196,42.906320485525136,45.80983689146335,55.08309834493929,1.3942190221258215,-168.2376795888941,14.483560720510324
0.112,49.38296337614376,-14.228141303262714,51.11705302380987,-79.72092234897718,-0.31160452520898807,46.300668662160774,49.07753392757579,62.84536311014413,-28.790476388257524,-155.43468622990252,27.939239189462462
0.12,51.19293955056248,-51.76341907705895,41.753680423822885,-76.74614175311002,0.8300398593153484,40.20728462143004,44.46296733425709,51.67251136568946,-78.45457684135441,-127.70238673796055,35.82192907033326
0.128,41.75938206376173,-60.449642449039,36.007925289306286,-79.05139596116256,0.951782295726529,36.307505717799984,41.7179114875869,38.970197050841364,-119.23732880655793,-80.55219043684878,30.17773758629035
0.136,35.928892926771205,-30.281532343021453,41.884863091345025,-74.80845759385629,-0.7482759026696832,38.45095430147901,42.335786184017714,38.098161655218675,-133.75002317715195,-61.29601141323664,18.148111057764662
0.144,31.102233316814235,-2.2651053452280694,42.32948054740453,-64.96614363173332,2.7667384019626295,37.31796848285429,39.292656040681116,35.19896934180444,-117.13307267798288,-78.25843617068418,5.937310980470945
0.152,15.008792117560956,-4.582982895518999,30.300210167735006,-62.84039286932235,12.094742863523955,29.24806516335607,31.5363585905238,22.005924643418137,-87.75549488287258,-89.81190989024023,-4.2500112112213175
0.16,-2.9970719657983027,-23.979229426727724,19.822423289400398,-68.48654214044339,20.275526632691864,23.744482989714765,28.544900724083917,12.79358378420335,-72.71595485823767,-89.56381052888526,-7.130551108721197
0.168,-2.816149345731506,-52.681725009117926,16.115578368648546,-76.71890409853414,22.87482103049864,25.11351156350678,33.62193056880502,10.063256876913755,-78.44668023128816,-93.58057507577887,-0.8417979737183334
0.176,8.556024947387645,-85.05117246876804,14.27428870917355,-80.08721734942866,22.60531703450282,25.22626731347229,35.18873809936273,2.928234906044391,-99.64926618408884,-92.40228325531812,6.122414736835284
0.184,15.523139927784806,-97.4828754131457,18.789803366776056,-70.7508317941541,21.918630872973424,22.509174017911448,28.827858337473355,-0.49269993562000675,-131.95633087104537,-85.64071001370273,8.926536510353083
0.192,19.20873398673417,-85.50547406911761,27.857033513636107,-62.2028530643483,19.021825763500495,24.258595332294973,27.89932450484792,7.376029646018312,-155.4065068264293,-88.91109973653519,13.86784305274065
0.2,15.496434998495088,-68.34808699661437,24.48970801881062,-68.91272975495939,15.916537038514571,27.09188137571343,35.58451903358257,9.091457769453793,-146.6593959248677,-95.95432721160572,20.86824221341541
0.208,4.587640414822094,-53.07676288097925,12.349884206399848,-75.22009787329375,16.162126141912196,23.431503409712395,35.878009330010244,2.0365387429558615,-117.10799655786244,-96.18114098796367,20.433801780073892
0.216,11.33801912383632,-45.67340244490786,15.909632320009809,-72.53903402967605,14.91856186813435,21.53067549550535,28.34881549466371,8.4219943528559,-101.28447867472602,-96.4364822600693,14.83605028459713
0.224,34.50139239130331,-55.4952242200656,30.693313726892004,-75.00516984095741,9.672910585677402,28.60655998335599,30.60827813925457,22.619001044981847,-112.2408392367459,-99.78899112663369,16.664203974073207
0.232,34.829579754697875,-61.870443384792615,31.181210454595913,-73.87219437451115,8.65227006246316,31.11936015700431,36.912837974040315,19.670378957135558,-133.440075640476,-103.34899352409876,25.369933289159942
0.24,14.898700768893002,-42.339806901396095,22.288437039508864,-55.65611546840311,11.523654250378915,22.270226607535204,29.69433425459345,10.858723210367872,-142.80659885526683,-106.37766723491728,31.060373482408266
0.248,15.605489597581474,-20.252903984833324,24.215342490808297,-46.654706931587384,6.173076373621566,19.537917701394576,23.972686626315912,18.34021250908636,-130.72599452228712,-101.81615708532432,35.38632522687611
0.256,29.988587506171264,-15.990804918635272,31.841153539925532,-64.94064624100241,-5.528903108446446,28.746887734253146,35.50927669449549,26.840767094851543,-102.95007869485677,-88.30453750477787,41.55197774703757
0.264,25.599663005331326,-5.762847252204448,34.40648866278238,-86.32740845269484,-9.419193998133444,32.20262143639586,41.247473887137126,20.5258406213113,-73.9739915714975,-81.11886988689032,38.66815891090011
0.272,15.674052879934772,16.93302291656132,37.3055894229599,-94.95802873082123,-5.708277135823132,26.76611189357976,29.25411557954973,16.23675065718734,-58.91707212346714,-87.43511465659869,25.4565790169994
0.28,24.097028767953965,19.214512136610818,42.993974703973464,-93.94251501967699,-5.36880919283859,26.822147077637304,24.399071928831262,23.244275047481395,-67.45168215262218,-96.34540863028305,22.955956577371452
0.288,40.41555608260351,-4.1452914559332354,47.884178075498,-79.29704173474497,-9.711631393100047,32.92476816231243,33.6251348520732,29.716392842703577,-92.27208322688843,-97.14715731401776,36.46440356250356
0.296,49.74973478607042,-23.026902205594478,53.63280491671903,-61.1321779381027,-13.377028737179373,36.79843498815915,38.516997449821154,35.3194916914526,-103.68240223369922,-83.51633283072653,42.59935331812711
0.304,49.51087705018967,-25.933984837021136,56.964994451987025,-60.68909354088684,-13.99465021439075,37.80423703604054,36.59438423635372,41.208996120683096,-82.76850722385409,-59.89974067719012,31.34019835238862
0.312,39.54969722856242,-19.872297798363753,50.06100189575008,-69.29392045618155,-10.652509438926918,34.86599603116631,34.00653376740124,33.325725119468856,-57.70698129555508,-50.735640170672596,19.033170431223887
0.32,28.86265262783209,-9.227088310648805,38.73316009304894,-71.18233298544202,-5.401836436247897,28.788177985306834,30.264941720875548,17.15982375253004,-60.413286234503545,-64.85049637566784,16.17231457093687
0.328,29.534555226524148,-5.229046006248258,36.40665237124397,-78.57629483453924,-4.413306806742712,29.011638467851114,30.90567520173421,18.154478870366123,-67.97989615888682,-71.97745108010665,16.504595822214508
0.336,38.53214532482992,-13.71248424310923,43.19069312416258,-92.29039221042325,-8.20998636733654,36.25377269887461,37.76799343611862,29.7186345040806,-55.70424255156476,-58.23171594585733,13.488278659625234
0.344,40.39043104402274,-17.620658309265686,45.54210326308814,-85.39903696932268,-8.978074294494798,37.95927769513336,40.28197685374519,25.27492344384052,-51.8703169553152,-51.4418629128284,10.124778657733028
0.352,25.134477888228492,-6.714568708964264,34.094476292982975,-58.785836858174875,-4.173713354649655,29.29901108394204,34.332195022153584,11.665499568200815,-64.80118441874635,-57.62570727046009,12.790784698046435
0.36,7.039400682678866,5.1197100971397935,18.748019894095155,-47.76779017308914,-1.4047099441534898,17.823035222315067,23.253290234258063,8.660744241914022,-53.177086147906984,-51.145797775422785,16.766258867913162
0.368,10.836640634155373,8.608154128170872,18.421705109604105,-60.58570927093521,-4.441805102728759,13.830237116280301,13.945539105469377,11.476409721062648,-21.090258217328735,-39.39073673861167,11.657206700924089
0.376,29.06650397305031,6.856695437479078,31.86389358452702,-69.35033964338163,-7.350981812101431,24.281523683940236,23.11115396416333,16.15786264728632,-16.969414749028626,-47.81856153843741,3.9586615626992674
0.384,33.35120209676227,-1.3413707698847985,38.173760540368775,-61.74231997916017,-6.736263818443438,39.77134167203056,47.505006473919074,28.44913405832595,-33.092825658763836,-58.35298090672164,7.2043187360806105
0.392,23.01495174579585,-14.595465355406168,30.202765404179445,-53.38544835777273,-5.6575857607842615,38.13935261723214,50.0572008102189,34.658751916313996,-29.47149081219226,-46.1492479474235,15.776210184585526
0.4,15.978930216225955,-23.215978765861852,22.197576602890717,-54.677376710349606,-4.958506502447635,19.64151003572588,22.295399147681035,22.51875961892765,-11.914115840127355,-31.782577391136613,17.095532680945997
0.408,18.051234068250515,-24.490841132843244,23.143801823794877,-58.46717580999988,-4.475383860466589,10.404333693249365,5.2650806747660495,12.229654991826271,1.3779442478666817,-32.87383255524296,12.267654888344037
0.416,24.65904384104738,-21.50996212845664,25.443643945394147,-53.11779887084674,-6.638351518195389,17.33892065464393,15.149715524948952,17.368366807424078,14.714984515301987,-29.885373243141053,8.071989336365196
0.424,25.727286627677113,-12.84700088843915,21.18597237885205,-35.70149578290413,-9.60811422872214,20.185885507328642,22.4866156689056,19.56169154918412,22.617065012844932,-16.85746523626238,7.605702564315121
0.432,18.59704384272206,-2.1816844970688227,12.144036197272584,-19.212418837165334,-8.76249684063631,12.403446219253237,14.984322959535568,10.508595009351469,17.918307954881417,-12.920573156179145,9.192699565892008
0.44,14.357760863588695,0.32904870963775323,2.3476092234652985,-16.202260280217942,-6.085583639308674,6.350598698630564,9.05436331017828,4.624143529655393,18.22663728965199,-15.065555119435396,8.546359754201594
0.448,11.119071832298925,-5.986659628770889,-4.0746178007515885,-15.171041188396783,-5.972298399545824,4.984220193563681,9.43882941737865,7.256878246371862,34.845916871002736,-5.321098426581689,9.214297234682059
0.456,0.3367361894050084,-13.87891468438739,-2.26063997804953,-1.7395304668252967,-7.787972382431372,3.1327890339245283,8.246553770156838,11.912906443537223,53.19893926025114,10.384379268548967,16.399544995226222
0.464,-4.912141069151626,-19.151300163209264,1.4447610984308157,11.124362962473963,-8.829361879191957,0.23179977747943037,3.7861887180295737,11.451740743668937,60.55750587864328,16.413385578073804,21.050909999584217
0.472,0.4813919856942606,-19.342582185141364,-5.416658421212378,10.838844608099537,-7.316053432329398,-5.115533759559125,-3.534277553003923,1.6361863403961663,59.1677096410028,13.437086107169057,16.21525502752538
0.48,0.4273374586053281,-15.846582757639931,-15.153057750753394,10.855071434676645,-3.6533163411654517,-11.089882107089032,-11.056439283216859,-5.248271427221544,60.906934471910034,10.889918987685263,8.99919305737273
0.488,-1.6773710500557737,-17.37496428860816,-10.31876859176046,17.864096824218947,-1.2790482769799163,-6.540022562624794,-7.154056994691582,6.193947223745268,77.7626504686943,14.978674203846728,0.11618041340414635
0.496,6.803661255222395,-29.02220855952449,3.423735802597946,22.345531164127685,-2.023041872062194,7.592250717253562,8.58503890745436,23.11110091472308,97.76341498023838,21.30053507270586,-9.567154098221431
