time,C3,C4,Cz,FC1,FC2,FC5,FC6,CP1,CP2,CP5,CP6
-0.2,-13.415090535456365,45.82154107390077,-25.402213496113507,72.5943000489033,-6.125537972257123,-13.313895383878243,-8.047121435801749,-5.609280883886923,73.6881955842352,29.674414994049442,-0.6601198699265479
-0.192,-2.9824999418152984,25.66349778692923,-13.975472069694552,46.850763998796886,-11.922536343794025,-0.2953828772620129,9.135620468137155,5.3627068651166026,51.529695884716666,37.46439100112323,9.657924819581064
-0.184,-13.39776258809482,29.72943037304188,-29.275483825737016,45.07715681361399,-5.4893741167087775,-14.30148258132918,-8.650181998756137,-6.653140107475728,15.10814464854638,45.835255272844286,5.579590680530141
-0.176,-19.274225393766386,26.720101522872778,-28.06127046104106,32.716491684775214,1.868697390500023,-16.023507681814806,-13.300664636514876,-13.84170999959042,3.2562415025316134,35.951170587936716,-5.955045172944942
-0.168,-16.73431675883001,8.873035070207068,-13.310525502060017,0.8734551768947516,6.566939777385687,-1.9031326956975376,3.075301542990389,-9.596035615781782,3.678710769087813,11.753458235589617,-13.08100713118064
-0.16,-23.833354762144513,16.878290821991037,-19.55430255967595,-10.689231599771333,11.279522660519042,-3.298322685681357,3.0591140160018013,-15.598234449640588,9.557543318718599,-1.4153208218613755,-18.913564579358322
-0.152,-34.428259663017485,41.20120186193959,-31.596654278217922,-0.5852256892903953,14.987025299846115,-13.624149381843138,-9.16847801909246,-25.695410335037835,26.31711352652476,-7.925972809016691,-25.823081388641423
-0.144,-33.985711733299446,24.6063675335988,-23.265978004041646,-6.816021116151759,16.503079972241668,-7.9237874136861395,-2.741067664071989,-22.022720583097072,28.32341423434443,-14.301159739196798,-25.445205542862485
-0.136,-26.578582026265074,-26.08048925205089,-11.261999915521098,-22.525821090097537,16.00655867976373,2.3342201467978536,11.00197811095664,-17.14350998099719,-9.828847170050889,-5.720337199947404,-14.249177914787257
-0.128,-10.164046885966068,-51.84013367999384,-5.906489411751962,-14.334416338637121,10.53350349499669,3.0589940404374505,10.854786113154608,-16.957912827862177,-58.140254419746284,7.539006172894833,-0.15331785074206272
-0.12,18.36018782398859,-42.99675136954898,9.011367755531769,5.853535266371174,-0.9686425697525283,8.819276755508278,12.633768133673977,-2.4984656409343415,-75.94356823951837,3.9248222773852692,11.344485189749506
-0.112,31.07622518569384,-24.565123308347868,21.138793691609397,9.52438648975779,-8.14168293228838,16.90526316176179,19.709071106104883,14.23797060349754,-77.3591612464742,-3.478290441209914,16.977509025986446
-0.104,13.016578520583817,4.138627490694448,8.0894903294187,4.488564276893154,-2.94057533216748,6.990125348228545,8.468738083749937,5.038202113486132,-81.65296588147997,-3.092380245770204,9.151263039495747
-0.096,-0.621528278193598,36.51796123581881,-3.8527633999949567,6.015749674972639,2.1919970835167932,-4.70834917498932,-7.110821257029212,-8.64092941739267,-66.06042865245999,-6.515847105154209,-5.129319041656639
-0.088,8.01955585676594,43.90101759462427,9.770846471353018,6.234772244493543,-4.629202230638735,4.488878385187874,2.6870939757394465,-0.36662731214168487,-34.28931768419073,-10.164809836701824,-3.7571842538863756
-0.08,14.25499727618503,31.1727600523704,20.91243166047167,-1.1230574341917876,-12.296304298118251,12.809534619242884,14.317276386557383,6.605520490840068,-29.659622284124556,-7.0689439014403135,11.085840157638302
-0.072,12.35019571013039,25.203030773633596,13.544040103943738,-6.567117280186878,-9.681042147341827,2.827843690826292,0.35446337571644565,-0.3776535895163876,-46.794230431274734,-10.54157654376539,14.979950417021659
-0.064,9.25044755026164,22.36373631053379,9.19876112032851,-2.500548888298145,-3.8507093459653867,-5.610677216147661,-14.23331103191004,-0.7204302578602643,-40.968609696614266,-16.91053702092829,7.820484359434333
-0.056,-1.2815595697609024,12.354053573247317,10.318193558839441,5.968752479244175,-2.85217102769664,-4.365382245857133,-11.293683161446456,4.887248055390235,-5.633909127786926,-5.981127680856471,6.585774957853427
-0.048,-2.653574291002145,1.8039697661208502,7.184797819988902,6.694542631649727,-5.479636575204549,-4.978925148713245,-10.780438657940483,6.629590501701669,36.407789161257405,10.554405707347588,6.3123774336327365
-0.04,16.769694618161473,-11.940435861513112,9.455942857862008,-4.211524892061318,-6.38861036760482,-5.511454385230895,-18.036698493229192,12.924933311559544,62.84741953145026,8.763374586373951,-2.6155751950060537
-0.032,24.48445331644471,-31.96647151241327,17.933209165382074,-19.174603787935993,-2.7406053304820213,0.6773161015577662,-13.85254665579363,20.338712024764448,59.24584814948797,-3.6782010432255254,-8.00837546305909
-0.024,15.760412555989335,-45.73658810542934,21.16568433175952,-35.06527685503139,-0.5494582943826934,10.85142047706928,5.115925485710683,20.17633227825928,42.6601001478154,-11.656799276510565,-1.2886660975878317
-0.016,18.75622933763178,-51.28950509087212,20.13740326359868,-46.872623132783836,-2.5379053668300204,16.96679159008371,17.19893158858854,20.083656541194433,37.76002164070879,-18.815148767653287,6.495408135288306
-0.008,16.817596955992745,-55.79259752770868,16.21015296706549,-41.041718837430814,0.5040179610380915,9.889939556747132,6.765747023182973,18.25641309169516,37.54549037533618,-28.55781951188944,8.758451992146783
0.0,0.43393771978283074,-54.74052713364634,11.39203782669678,-31.385283844498034,6.15265193142542,-0.7611550013181889,-7.162802398678642,11.180775123709944,38.40518635895925,-35.63602689041721,10.330579293281213
0.008,4.641531894867538,-47.52994004556973,14.653348392757717,-45.787305884376956,2.3512291108326835,3.71224233444145,-1.1735014523325398,12.805687784170576,47.32827341442543,-39.37281184036447,12.650150581555451
0.016,13.326601652219102,-39.617052332767386,14.613212568078145,-60.49118468096403,-0.6810863926841336,7.444085049243692,3.5912579105848788,16.579793564730448,43.74553044699174,-45.57447515649532,14.588119355045865
0.024,-7.203957440521838,-29.79622243423286,0.4205477554742861,-45.64085414297673,7.491521872631921,-7.084099248131127,-12.649898872178934,5.691126855957684,23.376001237980606,-53.81982699272011,16.49264515765767
0.032,-11.60279763616868,-25.232454717278518,1.0275849293728385,-39.64076370511736,7.816391522379205,-8.394007383625576,-13.968844045404365,2.9053550461894937,24.60904763690427,-54.607981574444096,16.812323737021234
0.04,22.37393579547248,-31.933058364152902,27.307857740933613,-65.8529133228101,-6.264712025590057,17.57157720660271,15.446301749068235,22.315218585542333,47.72362680104814,-51.499172680569025,16.806681922227014
0.048,36.841087737129406,-33.647482707804755,38.20541477815624,-75.890165882483,-11.5721930700496,27.46618905855292,26.755973849234884,28.99839339798136,51.901099692245715,-61.311569133485925,20.559462812157403
0.056,21.930314152657157,-25.759149083303452,21.145558944441,-55.126856002223356,-4.710508606222416,8.205595385400208,3.8305569760282943,11.793057570843317,41.2314321396577,-73.89133831320031,24.474950545491552
0.064,19.243204102604988,-26.316823404057267,10.0177371720157,-46.24560388999861,-3.0599655649493283,-3.081718169890079,-11.114463648362262,3.887134861507225,48.49246431185059,-62.86589162719394,21.32348535468962
0.072,27.32196401862248,-36.13137414607629,15.160162753177351,-56.85283164119649,-6.395127272542211,4.293778041066531,-3.907923832834516,15.39596120154636,75.48433962259442,-40.800860582683676,12.710477748304235
0.08,33.223675944751385,-49.54772498082699,22.700073807350154,-66.94789859882144,-7.7347792820215595,14.31331533819821,7.486514318271079,28.805120519766277,110.45826712725201,-33.47228464549867,5.804541469633296
0.088,38.32750294659067,-75.28963857286001,27.799708837471673,-75.74713236729744,-8.637925156245018,21.30654366658013,16.506746375942516,34.50410355008795,142.21536901435942,-27.51638852467508,3.9711307995722205
0.096,32.630401127984314,-103.34101094075949,26.454345341681826,-80.96431113906446,-8.081537631115172,20.15109746621006,16.769827520772115,30.14385515279387,154.56482617453128,-8.857114799552052,5.944244405535196
0.104,28.173645376898687,-113.00055042630851,20.918319808697277,-82.43579397772886,-8.358714796529384,12.450959633424132,7.171629043253912,22.065851178674095,152.47829965584808,5.904371349359676,8.99781729167394
0.112,43.49584306425324,-113.89009050035749,23.44627884534263,-89.76566137397562,-14.503848211964662,11.942228204818782,3.3988847811525686,22.87413867948119,156.45743632191113,11.491563357745642,11.637336765546333
0.12,51.42817376209573,-120.4183313940422,30.60491415634233,-91.17094022788095,-18.883776235044117,15.958353331279893,6.416077650117978,30.3154531611956,165.8331170111449,18.82077821519015,14.092022965117922
0.128,36.96683941210423,-125.41946254883557,29.242568637986004,-78.1099527437281,-14.871509082236454,13.199066000256892,4.3196485243039024,32.404777201002744,170.9279947593587,20.9967213005905,15.534851309919098
0.136,26.691293219988815,-126.71687228874606,20.12133969719018,-74.04377532930131,-8.504438910215201,7.840827085010821,0.10211501429150796,25.500017554730544,172.21471437072037,9.388902893402962,13.765705768077973
0.144,25.454644557472747,-130.7307411787552,13.042620860051942,-83.38262472459938,-4.6769641041745995,5.345264219632891,-1.098741038020207,16.320866980311028,168.92001920874156,-2.6453868873386885,11.914702002413113
0.152,27.804784861120464,-136.225070351322,17.0044218462126,-84.8149345240727,-7.0718429860372956,6.989785570245287,1.1387447292087078,17.15405978235915,164.1027406360579,-4.448568289931749,18.932258466441297
0.16,39.86889101155119,-140.5473617346702,26.346631577615714,-80.24074464861361,-14.88654413369257,12.667004954035148,7.888814508456477,25.29246689936347,164.55373862487875,-7.077895807738197,32.64868651587826
0.168,39.405489016929636,-141.65980181343994,21.7062478655751,-76.73062774356711,-13.695665645026702,12.133250448833595,10.116852820973078,22.16984015483999,163.80786747280362,-19.676617415828215,37.30751634291107
0.176,16.108316572526185,-138.93437783683942,8.842338669882048,-68.899214155015,-2.689962467016699,4.3004172792534066,4.399261209241167,12.94223258845815,158.5837093108447,-31.008448096741244,32.639059143604285
0.184,10.88089689625054,-138.52678896614205,10.834139438935292,-69.00185891229937,-1.8232952421970265,3.8618593053655577,3.2353833360828532,16.58035533172208,158.28686798278827,-32.04197878030458,34.45621437816281
0.192,31.095899544860963,-137.594115409408,16.573005491044807,-82.16886193552534,-9.162964062782422,7.798057657534962,5.08595167774907,20.90921650691509,160.3069480024028,-33.78586842779007,38.21311605749549
0.2,33.35006032550139,-123.42753244182207,6.411223702088827,-80.66713585550535,-6.010273670701933,4.0293876406898805,1.5065625446872464,11.57298866864966,161.30144262830336,-43.132780600764484,29.043427214672864
0.208,13.55850023936802,-103.80947079195744,-4.741263689944204,-59.924336946814066,2.4615918108908352,-0.5220118617293297,0.0465567876710419,3.9392910971938733,171.30571773281022,-50.2288836860246,17.85669979218176
0.216,3.8770161886577297,-99.79710439346229,-4.684214113427978,-51.81678803607953,4.201730923303959,-0.8505476003660356,0.8532165497668821,5.706840695168929,180.02113508459445,-50.86082162332924,18.024623379571597
0.224,10.395590158518043,-107.40778364040733,-2.9255691565100195,-63.01966189897328,3.378262289088243,-0.4283270875532382,-0.9625530496670395,9.96257189452703,170.60012196635432,-48.66361067629062,18.863639026488983
0.232,19.559625446504274,-106.40829660654157,-0.9938575028614894,-73.69163048777716,1.8301102781999696,4.405242482873794,3.484748717966558,18.26102142003968,166.0196812486715,-44.302703370863284,14.66927991037609
0.24,23.12403371843425,-96.02169203183661,1.011547874006088,-79.95644777492451,-1.5123615110150732,7.834250503321504,7.568507443193854,22.798631686299913,183.19117652653992,-44.31857111588135,13.865249375334848
0.248,19.87771277376003,-88.11740800364227,-2.7004670322378033,-82.69083308688731,-1.2035064641149642,0.6046903415499827,-2.21338867834214,12.884358231200649,190.39781738170436,-53.30459125460524,15.701738111163632
0.256,14.004677718522291,-81.3636545915255,-5.0335053494827235,-70.96753646377566,0.7145786602879315,-4.096740518422845,-7.1071374686090065,4.843841996115567,175.20929161749066,-61.24536995540527,18.72594331285766
0.264,10.828440644516565,-72.4983992914344,0.0983637786006788,-50.215009598535936,-2.448996199879401,1.3652773743955797,3.043401113514717,11.270326789073227,169.46435171220088,-64.57490389220418,28.469925364876563
0.272,15.999291825971184,-70.57049892960447,5.370488727963415,-47.64143069633828,-7.1076206189094115,3.691196949372514,5.332798527430662,17.42750331107106,178.46851824821152,-68.66482887879225,36.73355751775665
0.28,24.59549808988763,-70.22482012629605,7.805493323570275,-68.11430880091241,-8.16542916172231,2.087663989042284,-1.2390549821502403,15.394833224412496,179.05182615006836,-69.69846159476906,31.642413432830683
0.288,15.17395408079808,-51.068008101054474,5.551901549630797,-82.89620262717993,-5.49027884004336,2.1457633055055094,-0.3874325001943111,10.300941046833245,173.37637577468476,-72.95701749964253,24.296713979036213
0.296,-8.250431762246645,-27.650860181681345,-2.71861693813553,-80.8194606190598,-0.479475154937896,-1.9133835926096419,-0.2697353979765787,4.634426975162053,172.0235495871508,-88.79816085038597,27.785910037865946
0.304,-7.723887125137021,-35.07562339432123,-2.078592874599452,-84.9097546790928,0.9991382358815917,-4.335695408471797,-5.230924340707787,6.858040393957023,171.65790066956063,-95.97540322411041,30.1660128318138
0.312,16.38173888603116,-60.29332006373323,12.429470551388896,-98.75761486555503,-2.2879621133321706,3.035382998950482,-4.714653411682672,19.61693143376673,176.40422550042666,-79.85901554836349,19.21582534854725
0.32,23.641552613222196,-67.11821541108566,18.08003763024519,-95.04222244502645,-1.472272610132693,6.120379303473766,-4.950608790598827,27.279359075260707,180.97223244250162,-70.15624466615249,8.595160496045859
0.328,14.73884216987067,-60.676458417194695,9.21607149512783,-73.47356916991039,1.7695870778989171,-0.5232805505665207,-10.7328579617547,25.71934047376739,166.01345015608908,-73.55696978821186,13.2371314889488
0.336,16.590549966289803,-57.77063926842591,6.245179956900105,-61.35256340083374,-3.1241822829647248,-1.3893516564201187,-9.084731092262182,26.395405400731843,154.3860379697697,-61.97476912135535,23.41928077459422
0.344,18.8076832214981,-55.55188140753707,12.13447800916698,-53.67600691223808,-10.008021005236515,3.7695611738302337,-1.0284634286325065,27.834868788650663,181.0912005661158,-47.43271205717657,26.58288291454532
0.352,9.741344866768713,-62.81872385689868,16.984414452592787,-27.089028958555456,-8.60767000622562,3.8435836532073164,0.355007835009485,25.484461001533063,206.99903009266683,-48.67272288457875,27.342419192937488
0.36,9.741062621940106,-87.71624630458217,22.420546509528215,2.2267795534969688,-5.387098021287414,1.6312588491102817,-4.495536543735655,24.596174502265086,183.76792279781668,-37.297170798026876,26.68600226255168
0.368,23.259943865716163,-112.47302794072328,26.426098591118112,7.4233746247780745,-5.004262921391909,1.5273443990577744,-9.404249405569283,23.677754044082093,145.4587306563391,-6.4383599061782055,16.530114817099676
0.376,32.21636145745865,-132.54590614039063,21.94676899693953,3.0643817008927487,-3.858772271680323,1.8146728938331989,-10.090875317105379,20.806256277349974,127.81174438941136,24.418734065529215,4.207824747470302
0.384,36.14916721380011,-153.37102623609627,13.6811522696062,5.35859967559003,-7.87504436536112,3.355773238540805,-4.6627499807826105,23.17261940273546,106.96210241485046,78.74021967367864,2.7098514320963094
0.392,42.62761343184667,-146.72548866992076,7.920398180351569,-4.822021395906415,-22.390809386252734,4.920558374212444,-0.4465498382871152,27.504372745745034,72.00443614171621,163.46128263102824,5.3232052425311425
0.4,47.14959643323141,-102.11742892657114,4.879287059061101,-28.23127204982063,-36.944247941575476,4.436010113455089,-1.3299211565521967,24.569616608337974,33.19788271880271,221.9707614454106,4.220702840990723
0.408,45.76659237270251,-64.88047135652883,5.973553650298501,-28.879744177157814,-40.584650323108214,4.397004896130744,-0.8996444368559849,19.042769708852234,-20.554303586171812,225.62521935222517,6.281730088218714
0.416,36.983435763016374,-50.66532573865342,8.257874461780618,-4.181147925285241,-32.54368291637361,3.567040470320232,-0.3824757885576325,13.471095905304054,-77.25890831993868,188.97541119028725,10.015677584828984
0.424,18.73345504893258,-27.1734358700092,6.830467948120076,9.84436325497988,-15.204917025738299,0.4859413652429061,-3.1655722377147497,1.0947504139784472,-95.9645113505887,114.6892877391979,1.3244508213837143
0.432,-2.0409676192464765,0.5156123964751823,5.336938708469297,11.35959234969285,6.767332326906807,0.8515300604869834,-2.2578448058204965,-12.838812918979427,-82.85046035767462,30.561303163224878,-22.946087772401516
0.44,-15.717593377359806,12.655736865967366,2.61295282885537,21.490473286048037,24.4574899092678,3.5847139829257375,1.86341156383844,-19.92292091467568,-82.20739663357347,-10.966581887650374,-49.51298466635653
0.448,-22.24161523890868,40.60307746349729,-10.40794359097087,26.762121534714858,29.72359426499005,0.6216826864516722,1.396233412992442,-27.47135156534465,-112.32340086406145,-13.577820333359163,-60.279735734045914
0.456,-27.501543416463115,102.13889394940041,-26.932844115716357,18.211615686706217,23.174891277355247,-5.348806938030376,0.7117538435840703,-39.010740394310375,-164.76999985764053,-18.568699487957616,-46.87100488481179
0.464,-35.88252410636309,154.38935364682314,-29.934798258609693,28.4138913706746,14.44110215801797,-6.731121013653068,5.617081178090859,-42.90550055128857,-216.44686885032152,-32.832812527252536,-20.610085674844527
0.472,-43.41915263112725,172.63710629408035,-20.236971217749087,65.20862171264677,9.664917606237147,-3.3074122789048714,13.080681512128615,-35.19796315812718,-238.8230637982887,-45.07259122583259,0.005627142352722294
0.48,-46.43029202662865,185.40109066629452,-12.828571268761548,91.31376204051213,8.880538452661266,0.606666869081186,18.71232845592977,-26.730690804818586,-230.8908248111689,-62.766376666577784,6.221712540035844
0.488,-56.53586727527827,213.62058874368347,-16.36405938963984,95.4605778130696,15.289080039648427,-2.2833052225496715,14.061906632248812,-25.674803391257264,-210.9811473326108,-89.75198512458839,-3.879031773269103
0.496,-73.49273890341574,240.21604270906073,-26.44285264485219,97.5386900944281,25.47271451490888,-11.916565608546655,-0.9156043125702266,-29.40199685047423,-185.09681670794666,-97.90469332920908,-25.974039597185676
