time,C3,C4,Cz,FC1,FC2,FC5,FC6,CP1,CP2,CP5,CP6
-0.2,26.46370928337727,-19.052584672490735,-4.848140682329614,-18.633886690922818,-1.8438719845170932,12.832136107892222,18.828562863035117,8.065319380776707,12.265851931438656,-2.5997047736067804,-7.171561422740694
-0.192,21.32750462310355,-69.89280620332393,0.1975971422546355,-4.885097314769376,-4.443725064135572,8.685075744474064,11.544847779425126,10.978141528930026,-3.322308140262097,60.53560190665196,-2.4230885713812644
-0.184,4.652361296186678,-87.13524902060823,-5.852845912441443,-13.325278308197705,-7.928728608680806,2.51230461650177,6.276338050810512,8.25205866350582,-18.308873059068766,119.46207988648989,3.504845885939997
-0.176,8.975161672160668,-61.173405658890054,-5.872809598905758,-21.334585020615048,-8.261377268796421,6.023178926956189,9.15362440935256,15.251351676789412,-25.229623536705088,113.51317011273437,-4.338105179967947
-0.168,19.95104565597723,-21.433914427499612,2.0767644074622846,-19.21883065959463,-8.464046145491848,10.40739108093508,11.54725908200853,17.929206366546786,-16.235297155118825,58.41406890600162,-6.150599459432201
-0.16,11.2799954628404,-0.2779467590867262,0.7394147950101666,-19.313726015904948,-6.916357051640841,4.626955054534372,5.403796231673568,4.037240706541834,0.6216569068096306,23.106633120465542,-0.7272743058799598
-0.152,-3.1426242927807433,4.015102991268308,-7.700131668148279,-18.942359970364965,2.6925314602335075,-3.2480919394593393,-3.991789597217296,-7.355637250033158,9.3693652134967,4.060204100152884,-9.658229232326986
-0.144,-11.381901082845292,6.172512369769621,-12.179029520386434,-11.965994402789734,12.70548499297292,-2.93946875277282,-1.6913423495730495,-8.747122693880831,2.6611873327085656,-25.747964663122797,-16.317073110078685
-0.136,-13.62274855973875,1.6753408547534747,-13.39658547301386,-3.1273556183494473,9.714421281892973,0.07042260910079899,8.336878638609447,-9.833004402042837,-19.703024880760324,-32.8267579136366,2.2519176678572874
-0.128,-5.014510282158018,-5.9432368235426,-10.750098682386906,7.65587731091708,0.4643002350762699,-1.1624752392045592,6.949242561995948,-7.008665904549775,-43.37756202009706,-7.2655953609877395,17.988981432200724
-0.12,-2.546957176382616,6.784851788275672,-6.611999728866912,18.407672879715744,0.542444769571459,-3.246804081837075,-0.6382329735315007,-2.962027982366462,-45.444312233590175,0.794214642991853,8.466942922326778
-0.112,-19.702292597882185,34.85918726854614,-8.92883360877512,18.402264920311303,6.390538529695957,-3.505191653987145,1.2319949285080745,-10.201390555661362,-31.284808766465847,-18.59207179536697,-1.1696420472969997
-0.104,-29.781371180254528,49.44747238833068,-10.249060064922148,11.624273286588487,7.5993637459671115,-5.344610994296479,1.0179673312165496,-18.926286304194907,-26.85125312973576,-33.85542055549794,1.3985859075235572
-0.096,-20.60537494273787,52.29055104071152,-2.326732800818546,12.41703665965701,8.00844229456774,-8.36030379510868,-9.772221642636875,-17.26391068443196,-30.856849532094653,-48.203455693214906,-1.70686923894004
-0.088,-12.209734323444055,58.76048043858201,2.932917369344445,18.017826283409544,10.1576016996345,-6.337232332520221,-10.596505687454474,-15.648424728214442,-26.050213446085444,-69.90019288977915,-8.572123059808517
-0.08,-8.648690387741656,61.16351739827702,0.042186521635913285,20.680068983520584,7.941085680741177,-0.7164840390229064,1.9251229216047443,-18.23148419852101,-16.45558668024965,-80.78442522538711,-3.1253552832599327
-0.072,-7.527789420067187,54.2292519265588,-2.0786952672461654,25.21820287799416,5.3928550857772874,-2.722337494164161,1.19893499911458,-18.349459099611984,-9.47712112129116,-84.55284168793298,8.072189504291094
-0.064,-11.266672370383374,46.30178982368509,-2.6387246771085535,34.64580111246119,8.402089160251373,-12.617791126938338,-15.676364287125777,-16.978012870628643,2.5700589129749583,-92.26534783189938,10.527797549972242
-0.056,-8.933794808549226,35.910977697828955,-1.0653709297427367,42.4165472852912,8.397237744093125,-15.634248278612255,-23.365261137040978,-11.216415284593944,25.798430584139677,-78.42430414552696,4.8992989256194415
-0.048,-1.1917461149153556,16.78178501087182,6.249651375348526,33.63494822912952,2.0855081532558737,-6.7335878687095825,-13.88243681167183,1.8536040958557387,55.408171998563496,-34.01136954752776,-2.945242071608367
-0.04,3.0982571464210573,-9.626925432179254,9.077883426493925,-0.016277859330451692,-2.5665185099710857,3.521937996470494,0.10290406556491012,10.360993183131582,67.9715939318465,9.803226006266064,-8.585564703689387
-0.032,15.044837939297175,-34.930771287752336,3.492374747604903,-24.042987231745073,-7.832890696813985,6.691611773528172,6.10130084963647,11.374888707503587,39.781965622871006,48.229601753344355,-5.3673861494599056
-0.024,23.953169445940027,-43.93223142862791,6.070885169832755,-2.60687817166564,-16.640423613510706,2.593025886488487,-1.049326624295618,16.34599909814559,3.611230583315864,88.55183718318808,6.701374291199484
-0.016,6.735057764663689,-34.378743307252456,18.62184213476446,15.21769733650161,-18.019271621636594,-0.9927972023403987,-8.769736057167037,22.095921418355715,13.158033225197899,90.64712219339023,15.006769822554375
-0.008,-3.5946614754314004,-24.226277452391432,24.08128075550528,-27.3716664460578,-8.820153132033262,4.628197279879402,-2.4200809477763223,20.12817594174676,42.312378769097606,30.496395557540012,8.589959155133442
0.0,17.68976872534454,-16.388728523813857,20.916260769835148,-73.55329345518986,1.2434588634969432,10.969187722212926,2.234523402934612,16.048941190901736,37.06690868906431,-38.58470328572986,-9.15054922874754
0.008,26.84945385735172,-3.070490614733632,17.735400886835404,-59.48016865730693,9.120638347156506,6.0309654570310505,-8.965277749560423,12.403865611285926,20.691490324221935,-65.79530653547269,-25.04334810434169
0.016,12.472674496646105,-4.9004511433872615,14.011063616403085,-35.094591661546644,13.390459178760523,2.313407790308532,-10.535084599997402,5.602914516214895,25.828536048069843,-62.46358739419269,-26.50586371618657
0.024,13.753033098097832,-36.96341428544095,10.657164215415026,-49.25646783118693,9.127127363025485,11.029783401126906,9.795654777616658,-1.1502729070168893,24.304178499833732,-48.75981295492959,-12.681905665240041
0.032,24.21231862392067,-64.90174012414369,12.402660632175555,-63.85291596802388,1.758332708551558,16.455683253239883,20.353104551952246,-4.567212218693634,2.0434421953641326,-27.806437174881456,1.6747686571262246
0.04,20.581245083059983,-55.67524355182684,16.38361471473657,-51.51887008117762,-0.07965515387203069,11.132613415885945,10.394369314999368,-2.7507590698285886,-17.42787930040893,-18.255109593919805,5.662201932365816
0.048,18.3885808812491,-23.231305643438674,17.147436175515338,-37.35513865456367,0.27420743661590447,9.211909433239715,6.143635073299328,5.412575282942528,-27.701450556354136,-36.93723399473745,7.1036129729414474
0.056,23.224425691438473,6.511269301434052,15.68775378570599,-38.680034838491224,-2.8758006262622766,12.680446661747533,12.218651005775024,10.510510526984296,-24.93672152715006,-59.10822033479478,11.71366559017955
0.064,24.595331842633165,22.67159864067544,15.548391891317078,-50.007794522838594,-7.93395302021353,13.280381351727224,13.302439485919397,7.14697503252282,0.8059117724096909,-54.98973441997906,10.909362001056339
0.072,26.142696422312657,21.04838864242528,15.574664367983662,-55.48691748122739,-9.89411671789422,13.196096738852088,11.974130762921531,5.968116799672909,24.490014451413458,-38.65845845977975,3.936313306713237
0.08,25.858381989343844,8.651829419024432,12.731278345650319,-38.62046393140616,-6.623763090593248,13.119077937838425,12.498268361555663,10.041200262822809,16.90278473345935,-30.282990588256,0.36945274964344776
0.088,25.530229969824962,1.1444002218188576,11.541424369571585,-12.602146947804338,-5.56449776899171,10.704577774708229,9.248455291486277,13.232426682256904,-3.291989568368648,-15.020515137787928,0.37210127823398437
0.096,35.74269304451811,2.8694762981961937,16.309892522813833,-8.804674595365634,-13.502753561382695,12.25056418875368,8.761933530118226,17.30226295276922,-5.02733972623663,15.616409705770298,0.15841442939204134
0.104,36.57787639818115,9.451184978738866,18.300104814841543,-24.114601761259706,-19.987835593612537,16.395783642097303,15.01636487674645,18.10058014599172,13.046134282042864,37.07137314102087,-0.2078230821902093
0.112,17.950594323670785,18.187582888631603,13.944308340886488,-29.65880347526731,-15.829284372131013,11.869527540639456,11.1419076226075,9.162496097500137,33.03623040898689,36.24997237340386,-5.0580247596716665
0.12,15.834187317276745,20.943681184289,14.206804830862097,-21.384267901236353,-11.328087477200748,4.792989136127736,-1.952820734956485,2.5280109488720623,37.34342316701982,28.007487782676428,-13.623337484701079
0.128,29.626493181421786,10.86713280368985,15.881391648201351,-19.554593717563055,-11.176399049931732,8.970556945007434,2.8387440438997755,2.4873615286884245,26.553210864286218,20.356283053697663,-15.991595341819465
0.136,24.05606718508933,-2.930267105349441,6.913859111789049,-32.42397090366349,-6.221242253422667,16.4530074878043,21.43039235510685,-4.636672036048373,15.863177513139346,8.13711258599826,-14.45135857160324
0.144,17.55622550802431,-9.215581917765986,-0.4350586851432801,-41.98013752768308,0.4062655782264099,13.991488157236232,20.629660019159825,-12.352090021722148,7.410250802132043,-6.748626251578275,-17.026411928371793
0.152,26.95915193143404,-7.69083100036781,5.3089667783897,-26.593987539819036,0.8300344975727867,6.367254460981222,2.847819736075836,-7.456096805555356,-1.2622957034794269,-16.914192201617105,-17.22993236115119
0.16,19.426684573044003,-0.12695250143297548,8.171160680740106,1.4562577418718086,1.4937270994220795,2.0295856328865507,-3.713606374255866,-3.6089253067572757,-0.8410558437324318,-21.261007084769684,-12.072129121087059
0.168,7.118389850827416,7.415118947979455,4.362800084464022,6.518723656997391,3.2917817667353697,2.612581438825431,1.388554067411687,-6.182883228474826,1.718794833184484,-22.8893205844632,-10.204492206329567
0.176,28.839795241125383,5.016667232715451,10.967677558565033,-11.20729489698903,-2.385735315930577,8.80773036472311,5.338239802535077,1.4193863632358226,-9.300638077189491,-21.493888805205724,-10.536184951940504
0.184,50.916761087317184,-1.110270112007644,22.36857018692188,-18.200206560855975,-9.269556606141151,15.52926525737787,8.557816293823564,13.051770460592218,-16.16286476984499,-14.938886734034146,-9.586265091298873
0.192,41.74908820526135,1.1084068143731618,22.680720620864957,-12.313235279067687,-8.870712336857165,15.562955327073865,10.0859777101569,10.898019999519784,-5.629173879985413,-5.118512626562615,-11.744062481584898
0.2,35.947522115681544,3.335540345758307,20.50318941596921,-15.152429257958104,-10.441288118245883,13.033039470434776,8.256508666158975,5.139509366833936,-7.291422386326975,7.130507713053353,-9.722355718999406
0.208,40.725682366629954,-2.0313853264030954,22.816267184302088,-20.420135358712624,-17.717461867253693,11.894769694488648,6.627973274621449,6.620918903107659,-25.65420996743414,25.435726858103838,3.452831344690568
0.216,32.99214521721662,-4.582104281429828,21.726161516112466,-17.696902268272876,-20.249248407205496,8.460919216062399,3.215875103195169,5.838772694685732,-24.444699477706237,44.494237068092694,9.175231192850875
0.224,34.12793017049675,-6.480650423393717,24.224186609910483,-17.60314468393697,-18.605161739471736,9.350577796180628,1.8828144676886742,5.225793657650966,-12.777341449287185,53.06046236102932,-2.641811489958618
0.232,51.94515600654806,-21.19480266414585,38.04285934078311,-15.02262839417284,-21.00255178044103,20.125659480597097,11.59288695690572,15.099558490503114,-25.069305997784593,59.34965803951852,-8.74426700395963
0.24,45.69226248872936,-39.12962018970682,44.23564461630994,-0.005189131529487951,-23.76442196335224,24.82990799566458,20.466097077875215,21.85258528206349,-36.69872078481837,79.0994712135673,2.1989758223161764
0.248,22.466905404988545,-46.04823738152079,32.83835062284106,4.039067865077727,-22.596695421330985,18.191425356250363,19.00607658456756,12.531230210291632,-21.107473477105756,98.89569158672167,9.91176608741924
0.256,30.882191883258667,-51.40037547743129,24.031945873937467,-13.31900572058526,-22.665320896726257,17.883647433512945,20.602679664980226,4.182343649367447,-11.707057695897365,96.81225166840892,5.956851304329917
0.264,54.409350833475095,-61.25806978866904,25.780637017921446,-22.083478246605186,-24.7793634952341,21.16370517041164,21.468259435504727,9.534786108432938,-22.71760955144349,85.48265763776884,5.712994843705654
0.272,46.3772565827206,-64.30504251746709,25.053252646336237,-17.345664923747787,-23.90251394583158,14.155793602787462,10.747963570743694,14.01361945408637,-24.52504354375452,86.43614916407789,13.319796079600371
0.28,24.111459310306415,-58.7876096336978,22.11078784549289,-24.070170715285222,-20.67661703015982,10.675357498234055,9.20106672626473,10.133432658667077,-19.122372798726133,88.7676918989972,16.171161697737325
0.288,20.935399827298813,-53.81673630332848,21.577221807521664,-36.40002379621598,-17.313453309436248,17.802482291069843,21.606363789884504,7.997512952261302,-23.066002311956925,75.16292483724547,10.99320626762361
0.296,19.09800573694875,-51.25344440394332,15.035605000155433,-42.152149835176495,-11.63960376211267,17.08441893355767,21.969186528833305,5.956612801972036,-19.138113476962978,54.81521962215346,5.865608642450125
0.304,4.924616995234537,-49.923286387455356,6.824121286554505,-56.26323520354116,-5.232944145141796,12.297267947767446,18.14445699067026,-2.3401033221250076,-6.232001032892094,41.21297616983862,2.6614480229304585
0.312,5.324164975241272,-50.13119822663494,12.0760978527843,-68.62183474569915,-3.6329792499761266,18.540962462764657,26.74349398158182,-5.31916941857451,-11.07860381635078,28.368538503765667,-0.43689508898879914
0.32,21.354554522022532,-48.50990692537221,21.193415209811967,-50.69228229302416,-4.321800529145136,19.414180790218634,22.484069155662564,1.6981698532794995,-25.494266827113055,6.582388190200994,1.4121605850995809
0.328,15.55025302060652,-42.57687051633512,17.572892440888918,-26.935729986410802,0.041797432922047635,5.66751666588119,1.3579051531115658,2.369045505804611,-24.636217134771208,-18.90829746063834,9.039009382686976
0.336,-9.639303685364757,-34.8059765755382,10.619256407854955,-33.10261618254326,7.027699440084953,0.5741328370467127,-0.7258866513460639,-4.500302226483501,-18.340911070099008,-37.58352929460567,13.22891974332248
0.344,-12.813997807069796,-27.93219989769105,9.742488183009185,-45.61442004200298,8.834322416962507,8.663472143049919,13.456560668696131,-2.348790460580188,-16.050946743653103,-49.10813535621702,10.652173135186796
0.352,7.954625397776345,-22.323942880394938,7.1435702828004635,-41.92944052128114,6.360707191568277,10.825899677628486,13.649823138478837,6.409273578641798,-5.516168835794704,-56.310813205635505,5.528788710010414
0.36,19.079092508591184,-15.01596168450465,3.6112214429316736,-40.50853285245523,5.568013077923696,7.213098054558013,5.548636273672076,8.46181546159458,3.6766934392148043,-57.54233593530613,-0.8383335228284613
0.368,9.236648690578717,-3.0606692312762505,4.226188420123384,-35.874586459365176,7.281870727779961,5.097976955572364,2.828798031431717,5.237870134073413,-6.666847580545742,-54.09209029398706,-3.5485186133784423
0.376,-5.597468164482698,8.018762332161046,2.316723557361423,-11.705748332493592,7.626855444830206,-0.5068596955199726,-2.4608407486288435,2.1179260117667877,-14.913920543841959,-43.1083072540932,0.6884597159013742
0.384,-4.755657541699995,10.272652504375761,-0.4214003094514644,-0.4491181288382799,2.828645907961434,-3.916770474916349,-7.027675131561249,1.7125142693783952,1.212095250495303,-14.305012867917123,-0.6726470042938416
0.392,11.607323406137741,7.959993858882119,2.9922728002587777,-17.68656022927311,-5.379890519145702,3.8333810433168036,1.0009609688689294,6.072891655607376,16.183983789280052,23.430516232511234,-11.161855825925254
0.4,15.923415747922888,8.314842442162034,1.1883652273713499,-20.76537677452558,-9.849006521649542,8.289476239571693,9.210985248819378,6.079737406465534,7.055224155374781,48.17652699102526,-12.283434991682771
0.408,4.28306318381214,4.246908766610379,-9.991431120032864,-4.064698494956355,-9.068107029422611,-0.6929399713649865,2.434374937947142,-3.776963233751916,-8.901037515554211,61.26293455687765,-3.153126314370161
0.416,4.606925173011678,-8.75275189449181,-12.411162053993285,-3.6328572856841395,-8.17483344568179,-6.443079501894769,-6.029605712585382,-8.944887935137059,-22.19144335401949,67.94161899555161,-0.6618451151447584
0.424,7.5246540876535395,-10.792181883333718,-5.45047901189652,-2.0880386441043175,-6.010333638636879,-3.107713891890232,-3.618025446797064,-5.951003181445911,-41.56591997685019,52.80606279811024,-0.4525219398835472
0.432,-10.726538238579215,13.140181501877962,-5.6806828013820585,26.069541821138166,1.0191951910096917,-5.612592712472841,-3.8205186911215874,-9.291186976427575,-51.46949539784928,16.6255041266975,3.196289416913867
0.44,-20.315841596682024,40.97902895682866,-10.571401565497387,39.691003185056516,7.263476226698936,-12.164957903322655,-12.693694111527048,-15.141427010839275,-33.936529972556,-15.929076473790285,-3.392354565399194
0.448,-3.903916596125068,48.5882559330838,-12.014111032313284,17.301542561137957,8.961238207556676,-10.499176060378549,-15.071334785651862,-12.817932290020753,-6.974933169134595,-39.157670594390424,-16.905275559924593
0.456,-0.503667273386126,41.37750480497826,-12.365968347372476,3.880093324313555,12.536499806272591,-6.070261284344634,-8.8941690508443,-9.469546351764892,10.761927548141903,-63.1037291552446,-19.39796641685443
0.464,-15.384003150985638,23.344501067927567,-10.24500737244153,14.376524507671812,18.439911575058876,-4.5729106671772435,-3.9811083451590092,-5.711121607041937,21.62175064958378,-78.89128361810843,-12.764329807857765
0.472,-16.346855345973907,-1.4519095125437445,-10.322779508424535,16.274243447864222,17.792740854847846,-1.7795319700275958,1.8997059228829771,2.803068259088248,24.972376247726935,-70.19636520680334,-3.6749443537254733
0.48,-13.277685898026618,0.8524641430138786,-21.011528506432896,8.29720122611811,10.847995343614967,-2.8176182571533293,5.224169598237017,3.719492284722896,30.474216510178785,-48.388125269732114,5.86082575486811
0.488,-21.41004820784839,33.11295677583632,-25.442785360813776,16.053539462065732,6.868282123421482,-10.746132914017826,-5.6098100753198175,-0.11229463000163897,57.02865900680431,-39.135597288125204,4.801796496971568
0.496,-17.38437348966284,30.745629256473748,-10.23830321093459,38.749507642536464,8.538996312681627,-13.42391470580325,-19.85145447158917,11.87534908168177,81.57647181673954,-35.65166141489873,-7.951251758657211
