time,C3,C4,Cz,FC1,FC2,FC5,FC6,CP1,CP2,CP5,CP6
-0.2,1.1506439133490944,61.61959396169158,-4.654579470443655,-0.2573467675685048,17.72312454011652,6.7685231131168,14.7853111566108,-14.994829777152999,-98.5015582249182,-143.67404603775782,4.196943088195786
-0.192,-23.06513966483514,56.27418602281258,-7.309773492104013,6.8664880579292475,22.68028340326953,-0.4118065421258232,5.542671832673342,-15.4219937404429,-75.22606587509358,-123.0943667392111,-0.9737188867478689
-0.184,-15.565479410866471,38.641772863519925,0.1862732377610858,4.388874308978846,23.19340791602723,3.0140389882484064,4.789684696709605,-10.791889839265117,-50.188115314850236,-103.8555611561098,-16.423257623643412
-0.176,12.800604649550863,15.196957616796544,2.3330247635068218,-14.50253990461466,17.061688051763372,7.748330537831032,7.3755944141256435,-10.450733664091581,-49.436247162104266,-84.7219829729751,-21.876185747278427
-0.168,10.9373538073607,9.213024425216503,-2.923728432257095,-29.90753127941934,14.08716379834802,5.76155818043009,7.435761207846681,-16.84780263928812,-60.10009632568439,-68.00440430569768,-16.00638102674986
-0.16,-3.8974942815437617,16.03720753614655,-4.05328198060966,-15.669824766711296,16.34318520765429,1.3293365918406395,2.418313609832923,-16.318357971687433,-56.374673246506696,-62.843031916438996,-15.079583060384563
-0.152,2.756318584437824,13.653010006057526,-2.539970786453443,-1.3500259287533383,14.617335073067771,0.02152549878865383,-2.527645771197735,-8.801265521614853,-32.86431750400078,-52.477337343552726,-19.955506500034772
-0.144,11.52134590189432,1.2129412584588584,-1.5329894705270093,-14.01716036363551,7.831206909865611,2.6799433280060896,0.7406501541338741,-4.721552610136791,-12.763976881241412,-30.98244615949773,-16.226558656793305
-0.136,3.884061632976123,-10.47280939456197,1.6793939747904425,-28.120215623103963,5.101203092796469,5.933241240923802,8.423217473438784,-4.261941364076255,-19.48985827675025,-28.701382210598826,-1.5843677666056928
-0.128,-15.234996700693596,-10.398930010585719,-2.4338948728996317,-32.69166782455523,9.889570373773036,2.849803830746142,9.258534309591457,-9.31230699270842,-37.56950462844328,-48.06869787781768,10.815611224278419
-0.12,-32.991744974271754,10.958997507148645,-14.131148692956607,-39.875326005163004,13.789789760305283,-4.761917170631698,3.294016366348485,-18.19745223577412,-37.06897513865413,-59.85747172943845,12.909889993292717
-0.112,-20.790257790561522,37.65872578518428,-9.862599663379893,-38.74539639532978,8.814763770063813,-4.0292703973057815,0.150258159400204,-13.700991376151004,-22.813636122733875,-69.39885939149032,9.561507305912274
-0.104,12.700154804754492,43.39218680706636,8.152361628500936,-31.820367878789135,1.7729228587193275,5.151713903850924,3.2879982279010567,1.5526836091309941,-13.52272350569322,-91.78517827693916,7.833968328838352
-0.096,12.006942096600984,35.22796413133575,9.743599463232092,-38.25999281390314,3.648768588180769,7.013588305813474,5.697528515112088,2.2744533039071455,-6.250462836573486,-99.83408767260583,7.409368164226227
-0.088,-15.29600440627372,25.49232796514626,-1.6469174798230695,-37.84439106187365,9.334466628842382,-1.5359752657438197,-0.8446253433152001,-7.226287452009262,2.078825559903726,-72.76500393206008,4.424592250223839
-0.08,-12.47029961372976,3.7536917875929587,-2.66152245822323,-16.09459303986564,7.6144169328333575,-8.50281090553121,-12.667902008950314,-4.334854039671007,1.8470885777875992,-39.7930945586146,4.84704654367906
-0.072,5.1482223495377095,-12.157970376405043,1.1187685338928146,-2.7441029552807885,-1.550330712435291,-9.243961732495093,-15.828610518725714,5.567593387443266,3.47278362807089,-24.86267532361877,19.456308522851263
-0.064,-0.3611032680828316,11.351402773860265,2.1181328648322486,2.929476975017546,-14.14200259493789,-5.762110410651081,-6.227363572265998,11.47659584812791,37.653936382727814,-6.882745774130979,36.19224338380437
-0.056,-2.677031636741356,40.539893185037315,7.810675253987213,24.898003482286214,-23.36677568346959,0.5744294603261849,3.267507762925727,16.273842777146058,94.67276734208068,21.305526249571685,28.961638691501093
-0.048,10.80657128992036,20.06880545883795,9.940662065235854,41.13296471425297,-17.431664737652042,2.0220033675732956,0.3719429736389353,13.265039432077858,113.22195821772411,26.89850260593733,4.447847057802538
-0.04,7.064817831534613,-28.502057551247276,1.579552537899855,39.013510074103564,-1.827388733975162,-6.273541606233507,-12.303018547032341,2.5530015265923502,78.52313113930214,24.274622538276063,-8.60678391387824
-0.032,-6.276799433712629,-61.957700510745255,-1.0495308985007166,46.11605400117201,1.2820486168691312,-11.511940721762832,-19.721914524448103,5.9878738554213315,61.1556591383758,76.20090385257501,-12.556002849139631
-0.024,4.835160194542249,-87.1910267329109,5.546591667390644,53.688872853885194,-11.223260866365084,-3.1666668245449783,-10.964630106005956,23.547701602679926,89.78327767859874,165.38980125705046,-20.838930107588883
-0.016,24.5533254882367,-103.90049727639041,7.168155320415087,41.345991860371385,-26.735456714418408,5.791710118289408,2.2862174798889576,30.464959451533755,92.36386232653378,229.79146767246297,-16.534212780865563
-0.008,21.50764456725145,-85.08461528611363,2.6032368126826366,36.45033959569155,-43.1685057528497,2.072824226565181,2.3275930881399223,24.59907859975242,32.450402665243125,295.68903259113455,4.720517734605614
0.0,6.953184069365117,-40.627081952949545,-5.180490425949708,45.06990668487852,-55.339959726392735,-3.532569115324308,-0.3670910363771299,17.819435830256836,-35.05348161310069,372.05251661154756,10.884006630498744
0.008,5.7025676171561726,-2.594479794868829,-13.361552170291807,40.158329153369365,-50.19928382945481,1.4494558984966253,10.151862141936169,8.573879340884123,-78.0748929972795,355.53733057476853,-3.4935795951765627
0.016,14.94626276003674,26.409540703288435,-7.872006423974033,43.40016869062936,-32.29066659028663,7.325144593759494,15.984912407885622,-1.1097720388074659,-110.44858093108823,227.05233692252742,-12.67453239330961
0.024,13.867950124048152,49.6258536993882,6.711458989726992,81.33370567485514,-12.951261022610453,3.3028131061590535,2.4976051139980333,-6.901775863880763,-124.80755565479593,110.52320552787775,-22.648070820763856
0.032,-6.172573161466468,63.24423872457179,3.6172240142827428,117.74536844465078,10.020362347207962,-2.2327890714553873,-5.795404269360968,-18.856318809821452,-122.41807053748327,49.034287284109666,-48.58110853934833
0.04,-28.372239248291645,83.96737755045287,-13.854440114095883,126.14796980126508,29.413316818983347,-1.4489457324822816,4.879526941347925,-37.89799155439299,-137.46789517783785,-7.598300469152305,-64.87527911301716
0.048,-31.85072807829337,124.22261165662019,-20.80742001907396,125.65869530856534,27.102364320291198,-0.15572212398626986,13.47969359126307,-48.60926071720826,-172.55113330903623,-35.19475226361803,-53.534353458336646
0.056,-21.459263684475385,163.99002058362723,-19.481030972022435,122.58347815378987,10.344485298990337,0.5357414890061849,15.545312968431581,-49.42416260361839,-201.7857838078322,-5.348647497139346,-39.15008439574016
0.064,-18.275612150447326,191.4697725778737,-21.044799939553872,116.20487013188666,2.5777019620221306,5.546723365378856,25.67723766920894,-49.38464439160503,-225.79152193442124,7.358981572584885,-33.193828058388426
0.072,-27.500818320409284,221.35773194927017,-22.593546029176903,124.65637232346319,5.2813805318996945,7.141081415867459,32.520528771276496,-49.802787036936145,-245.07789118442327,-40.41420786885219,-20.189224093929592
0.08,-36.92056284793427,256.11430752160794,-26.130229766232063,147.58033684236315,7.822758058262086,-2.9259717008497885,19.66450548444109,-51.969193835966124,-239.4608834303847,-89.62062900265306,-7.693772343673237
0.088,-40.52758795096021,279.4615309368969,-30.520730362058362,161.2696397154177,12.145564456283719,-11.733209538654702,4.822906414186991,-53.93370734259102,-211.45172282506962,-111.08007764507857,-16.753295801584013
0.096,-44.73756615760813,280.70737821951906,-25.613529305655,161.39585153696353,20.18119955411112,-7.468066487768608,6.877395990478509,-48.795558444901644,-180.71392075223451,-124.16376821420164,-37.47199512849649
0.104,-51.35395670557236,256.9902621107701,-21.384018722138677,165.37818021268242,23.027877261321994,-3.6184651868640825,11.173404224149605,-44.030371793558885,-152.43121207319805,-100.38463279829281,-48.38589089639544
0.112,-49.83443317373483,212.62246653277128,-30.289690946103583,179.45206111223354,17.028633715364034,-10.400927428887378,3.487338708437298,-45.31018959868982,-138.0748239438652,-17.69888333130981,-50.18182761845463
0.12,-37.47553106159912,162.80312571671948,-35.12457090892697,187.7943742106213,8.498588665135227,-12.603339013267872,-0.37081691929398564,-36.296901556268644,-148.2356386828663,72.36908400354903,-50.14024190436505
0.128,-32.986124493845715,126.01697027954833,-29.451544388924212,183.23713614377218,2.2436971500179794,-4.468022629670345,9.394848256836001,-18.13460561129502,-158.02024410951043,139.72479061321692,-50.80947062180018
0.136,-47.90471460755906,116.87464584657596,-33.65656413029803,186.23330218227423,1.2927763316781544,-4.995995387983581,11.007978070365287,-16.242297239249883,-149.5423884161694,195.46268781418024,-58.90609604884764
0.144,-61.22236082726541,132.8716523090754,-41.94017417815464,198.51447409666054,6.900295543392505,-15.799591659989519,-3.9884833687143155,-26.154118321871255,-145.71173013650608,201.24469611899647,-70.68786466538364
0.152,-52.58412456377415,145.7853775376327,-33.07343505103715,185.89714103953864,13.034560561516074,-14.975179993632345,-8.394070562486274,-26.40356993904105,-149.7563089755792,132.45517891216193,-70.99827647827884
0.16,-41.37616514800523,135.22874374803698,-23.135377893841678,150.66085307073834,17.165355343908764,-3.887177183576459,5.791403831480772,-27.236423962378673,-138.2140032450881,61.89539404146748,-64.77078425539307
0.168,-53.7021328402462,114.77621953698171,-31.180119213190387,139.33240182118183,25.6523117872023,-3.8027102066568337,11.780095996819778,-38.03906510160292,-129.37277153628932,40.58838396281896,-64.21106754586953
0.176,-71.34333832458262,101.61128651301804,-38.27388930567991,157.43951083489748,34.88707749732803,-11.693952060117045,4.231289454962805,-39.473567189848616,-152.7327349377432,26.89740837764989,-57.19238388647451
0.184,-67.9292258401202,100.05747152669313,-33.6258746979329,171.92449049831097,34.94559444143306,-12.693929133549272,2.096652447614026,-30.348434406573332,-182.06931920635202,-1.9470187497314784,-39.33830840514755
0.192,-64.98466317057265,116.06258634677499,-35.27758865132987,174.92647008856244,32.537499981832795,-12.041399768450486,5.4701323406547795,-33.57204225619744,-190.858031749891,-21.002577314331344,-30.76966176577456
0.2,-79.52400991781928,141.27096129820802,-42.429686478420365,170.18340906175936,35.74157001935004,-14.44556557098632,6.882973927699533,-45.36690389027117,-198.29805792556584,-35.21387857855894,-31.631790117302664
0.208,-76.57878287551696,150.68842705918306,-36.837583149615625,154.83299097652278,35.85402772674734,-10.667626237991293,10.601612646832187,-44.373544229924164,-206.36728101138212,-59.49948923696772,-28.956609360504014
0.216,-50.124466475882585,144.8197438689175,-25.775956408183998,141.45944084350154,30.68698739314937,-2.6761176835589318,15.285523165405474,-37.121247826707034,-192.22119697011104,-71.68584453115245,-32.47340388058047
0.224,-46.34562861523498,146.14557733887605,-25.407226786379102,140.84675306732197,30.269020533721502,-1.201653706625703,16.33682303769014,-40.341125404880216,-170.52954533390385,-65.56383652435197,-42.14808562544703
0.232,-61.16315694408163,156.33748547167235,-29.465898259460996,148.03212870498842,32.87674960278957,-5.007069999799895,14.250583608139262,-44.55433100755577,-164.88972005586717,-71.62545204754001,-39.375094473429336
0.24,-53.08865777654841,162.74955665870758,-30.0311478012358,164.1053293063341,30.37734395431081,-9.574735994101736,5.50833028523959,-35.79232584094012,-152.1625016938022,-82.15794634453323,-33.059895311544196
0.248,-36.64473122763701,158.9138675200269,-28.4959775306469,179.73152852417138,23.229177818991143,-12.172556431476586,-3.6916970055815055,-21.122638447120956,-112.47500941672834,-54.79936968694055,-37.211892574956806
0.256,-34.35850439615203,138.07578926035254,-21.359379629470148,168.22469684249648,12.863575357164173,-6.57442291726467,2.513357454969422,-8.989835271016757,-75.78705712515072,0.46960646006029166,-34.93514937487204
0.264,-28.808617816437824,104.9002436052718,-14.805292954168381,134.03336700275008,2.6729334176719832,1.1248996549435466,13.3455434067964,-1.663934498481084,-70.00106469031125,45.623283086663804,-23.935241606928148
0.272,-22.59352404331617,81.74626364524907,-22.62912741670015,106.15183616715994,-0.21856933542105517,-3.3694078582490947,6.7294083482458635,-6.131553517649269,-81.98332550000653,83.54043939621594,-25.499569729612066
0.28,-24.50674607283343,75.45687908474041,-29.630990258485575,86.67870042953129,1.3003101400267603,-11.108328332396349,-5.333509771245293,-15.930346105108661,-89.22878166722276,105.23411176371455,-33.9092083837302
0.288,-17.528107036321355,73.35469303822502,-16.18833052103034,66.89845737352628,2.2420046182117637,-4.618102626323194,-1.047484447179087,-13.103122689941625,-82.9723697333627,72.05634534509616,-33.64131909275662
0.296,-15.126375419446596,74.03111769208614,-3.9697361198764702,51.9962979013598,8.25978331719084,6.8326321691045075,12.81337715016272,-6.462214628369434,-63.64450404598576,9.692303879389453,-33.73649257853747
0.304,-31.828227310655507,79.09002935964354,-12.002204716411034,37.833829842673595,16.915096458382397,7.413230924045085,18.620305813883313,-13.327696262234,-44.06931112124473,-19.31740464541008,-38.00592268179961
0.312,-31.02955624708377,76.55744483934797,-19.93992383739226,18.644342489400216,18.251701827340078,1.3768271411106727,10.562266924952766,-20.21193056958519,-38.66349240622511,-24.382901733177185,-38.329747565847114
0.32,-15.367992552457695,61.384898069363686,-17.774371371835596,10.416393582874845,19.16507948511248,-4.069008211925587,-3.4734763629464274,-17.60237936895987,-39.7988342228044,-36.22786749486443,-39.55337236536468
0.328,-25.514071579172974,38.93166911325582,-18.295721752102093,19.54700035926618,25.280690722570014,-7.66275976852693,-8.15699784428708,-19.873211100846532,-35.716834296885196,-33.30198380433693,-41.88772551731827
0.336,-29.01786885919617,11.549105807816332,-18.181827103738712,21.80761060812022,22.76567814352948,-4.573720252946604,0.3988284494368806,-23.384038897379018,-40.33617972252328,-9.819102154780891,-33.45394402606627
0.344,0.92258028656042,-5.9234415031230325,-12.762736628691716,6.0597631534025505,12.141238748899335,3.0072589868784814,9.105760288978088,-17.486110033391476,-64.7973080754881,-3.1213072429776325,-20.239587525255082
0.352,6.83548285340272,7.225266522249467,-12.961137795684204,0.19312246417423476,11.088806759991217,2.654047110283522,8.09800620863839,-17.219397906639582,-85.94432053814529,-21.820386474502307,-14.551890492736865
0.36,-18.025257138004342,37.25776127809604,-15.713326194432925,26.035159861124093,14.375113969760564,-4.868136921149263,2.0236546338112142,-25.643064168921626,-82.46701214565746,-40.36176521884221,-7.709663098526214
0.368,-16.248387453870336,51.04191690008207,-10.389382443479269,58.35548582839336,8.78435508108417,-5.41367664374651,1.7707705497808448,-23.307900238969292,-66.5740206395402,-46.56593543062158,2.455194895082511
0.376,-0.10202286365917085,43.68185477942811,-4.857127192633625,57.98351842480625,5.225316740392133,2.1636246165407083,9.536779760959273,-13.956763992520315,-54.895284581311905,-42.66797649851535,-1.279063330459999
0.384,-5.7070446361288285,30.832954403279945,-6.010983645787707,29.410019795446484,9.759002781112756,5.347266191274308,13.268325755320088,-12.668451185323542,-49.29545760738203,-34.025918514921486,-11.925712462526748
0.392,-13.766976322239403,24.09588098110562,-8.458857458372167,14.024485550930436,8.989561420860337,-0.03916058647810261,6.5482504743480785,-13.834437990013777,-49.55290979537993,-29.814009496744358,-2.502800816712377
0.4,-12.685329954955392,30.293180279451857,-8.828280620620554,25.89620154288744,2.3135367120208543,-4.350045229999324,2.085872078932667,-11.66671326776214,-45.35185900342294,-30.834766749955666,15.374315532287827
0.408,-6.004901705726923,41.73063214140211,-2.590338863837368,25.229897240550322,-2.0740902065797413,1.8875243225198763,8.774096750022647,-6.79677137651785,-17.558689329639474,-27.409308434802973,9.755207690011796
0.416,16.190707038163435,41.24033698984768,10.401946051774361,-16.566670900947077,-8.070437983572349,13.270068867874711,15.787806904839826,3.416847680038914,20.59566262895518,-18.750212584131553,-6.7624364011598965
0.424,32.13859267566136,31.6296944909041,15.753546837609363,-55.270207429325595,-13.08859701387116,14.011043028507029,10.515906485772941,9.289076931258146,28.86629331716731,-14.849241879575889,-6.421989873838508
0.432,18.317400530490016,22.63988690224336,9.861786804177404,-45.22866719471036,-7.642301600565736,3.547570790124335,-2.423164501975764,2.3301889073394406,8.359310397374124,-15.433360713046984,-1.2548151539443262
0.44,8.15284079651923,3.728500897593452,7.523239382022133,-31.28511164453824,-1.3890172480389724,0.012230340678721162,-6.016733591947848,-1.0587366530280864,1.6898543508574653,-10.37254587646606,-3.8452100509298064
0.448,21.252982290210998,-25.755231160336965,11.772041234133942,-58.82271648074152,-5.71068461797694,6.3618984067093125,1.206069092184249,7.304989061798465,15.721439373033474,-4.405072418884102,2.6414500127294263
0.456,26.971167184593735,-40.196009423119406,15.688367928799742,-70.56878768421619,-10.364682986032484,5.49743770712772,-0.977493574243888,11.927372797151472,18.744115605283316,-10.614174307374485,18.78191264376057
0.464,17.54178665465104,-34.32953435154029,18.814006920035744,-30.94494723278721,-8.413847232469505,-2.1644994415210372,-11.87301410819633,9.937650929573921,8.694487159057488,-18.79728250987391,25.799421108615086
0.472,12.883042418223338,-32.78142506904508,17.21296092130994,-15.590535008108228,-8.357857288174536,-0.5701285833608372,-6.971485659824205,9.9571989375544,7.442467751699855,-9.741222467151985,25.515771396964283
0.48,16.003809737533956,-42.20804297362025,10.5072929238502,-49.780346533226094,-11.812924089322683,4.8913679871492795,4.238500551551879,8.898727415640145,11.147944019873984,9.046054511453649,26.105502472266057
0.488,20.531473345818547,-47.16187537150795,10.469100809578796,-56.06003129741719,-13.049991818441002,0.872472831089868,-4.025745854391288,5.158831405059443,10.591046090809561,21.918735130961572,22.208724800533997
0.496,20.792484934137896,-46.763443913578584,15.670137042788722,-31.24095752770489,-12.666822148926826,-0.48920006814548994,-8.541854171887085,4.996928143055868,16.052358910184356,32.166619030380176,15.146880520883844
