time,C3,C4,Cz,FC1,FC2,FC5,FC6,CP1,CP2,CP5,CP6
-0.2,-19.321793575909624,-59.71822270556786,-1.4473016790283195,88.44737065947783,10.157157778005008,-5.976548867229149,-6.079151697610133,14.245838641749131,47.868708387652525,34.62340180855273,-4.398206500274827
-0.192,-15.199848308656968,-74.02193496045223,1.7679618221135835,86.72325346933437,7.10460113974236,-7.899759455218223,-12.142283810055464,15.921514113803537,45.792322892632605,67.88561447584742,-8.545453241350385
-0.184,-7.72378356393012,-100.03863427260825,-2.227649178316064,47.014348887975075,-1.2225037913843664,-0.8546641383961668,1.2383991836168864,15.099464591515401,6.045051615005643,122.24853495424568,-1.8849329481236066
-0.176,-6.052287347931763,-110.3044352068125,-2.2872912993425616,28.524836972532388,-9.001426298825903,-0.8283512105380555,3.4373536157820963,14.549518731674578,-12.58853010926956,143.4492962009756,14.682943498256938
-0.168,-6.199754760496879,-92.53500366311356,2.7085558978853297,49.873059446205176,-6.2013908088633185,-7.320991282974434,-9.27785271978204,12.244608686508665,-0.6904576812455554,106.86387156992842,15.504684803622183
-0.16,2.652933476568123,-65.61491276644227,5.571661872518592,50.259074924540414,1.7168893809345351,-5.822236554405411,-11.992366906307598,8.164163023349682,3.8948119220162427,55.55266512206954,-2.8073382981879065
-0.152,1.0059201361241337,-38.93406700856316,2.184999546788197,20.950107642114073,5.304626975424935,-2.176188714900979,-6.090550113183169,1.3747246122261427,3.796611845485401,27.157827591606065,-12.194783557749414
-0.144,-14.37538043035579,-15.62930015137297,-3.0472743007098524,15.137267244609774,7.408008348062009,-5.41836271652072,-6.79753388256506,-6.085961013107842,10.922305958211899,10.182064939760535,-9.267005940983932
-0.136,-14.0604662303662,-13.607506472955114,-5.173455162653911,27.356558620037525,10.987378891073057,-6.482041499423921,-7.485975204091097,-8.752283802364436,3.8379151697876868,-5.644361239614509,-10.659646471407475
-0.128,-2.251499058572071,-34.81165668512519,-5.764125169203848,21.463972025880906,10.988365276144703,-0.8822862394524927,1.3393807221821548,-7.757607637108768,-16.57163950886451,-5.349382229596372,-8.762047530192238
-0.12,-2.6270170448044863,-49.748890390597346,-4.337969248868545,19.79081799737213,6.600178135523564,0.4813204665206354,5.804301730301434,-6.225178444277386,-28.885285888488202,4.9090773132608545,6.23856983485656
-0.112,-5.941710303918917,-35.9350049766802,-0.2534299129813151,33.58079827839529,3.142633119345109,-5.613735286754996,-3.8601296777876786,-5.054329521877475,-41.503584596999076,-3.347042512043688,19.918245951805343
-0.104,-1.8862058998360767,-0.16109235960967225,-0.5030414862448398,19.011341735719856,1.3983984702130634,-5.965658547966138,-5.466028212101524,-7.43403453470076,-57.936555139089315,-28.703416085410648,21.173800296541703
-0.096,3.8500841592643433,37.812167626729845,-2.399608922150808,-15.21773865092734,-1.7423781252907524,3.6476282887160782,9.512332331514399,-8.473081000814098,-56.202921081048295,-46.4815062441788,15.045518920236281
-0.088,9.971512803892836,62.36908449956403,4.664253718937808,-12.033397471633332,-5.0974295029202485,7.5024058853468745,10.83062185378444,-1.623114358191913,-36.962009598733026,-49.01592738036293,7.035014250479862
-0.08,5.529952907913083,68.64008167617824,7.835251972160905,6.070179989666934,-4.282127333231014,1.5192177881233195,-1.0714453605057828,-1.472244472365493,-19.03760674565616,-40.76860576913442,0.20520808562777157
-0.072,-11.932647152761776,63.018969193953836,-6.950731104353371,-14.86456278196614,-0.24776934500723014,1.0372579164703482,7.071425954848653,-16.406016095003608,-7.75559779449813,-31.132777954105805,-2.5223299746558294
-0.064,-12.211613231427089,56.92653622196991,-16.113527776030086,-41.98259976498404,-0.0488874248412748,4.784933100635103,17.73198685438714,-22.63767347135378,-5.462184919455287,-34.83734996007363,-0.01524488739169137
-0.056,9.707347419211537,57.72681415837744,-1.5711193474015963,-35.92941098988074,-5.545342411303902,1.9766513211113395,2.833715886346023,-9.50089268649237,-6.985040503585418,-44.11579620914694,3.328713546963177
-0.048,19.026952757210907,64.45740259706052,12.904775762945897,-29.079505386413512,-9.421893219432567,3.396257766018709,-3.571981495624031,0.9869164260764713,4.315012872299982,-37.3953982017815,-2.5465707839461906
-0.04,8.939757760819502,71.65849953148378,10.104373180566597,-39.02999634240083,-7.451466194480244,11.726279496124844,12.22090825964902,-1.279636967867537,25.709208440100696,-27.29718165992345,-14.26672397873346
-0.032,1.4364418662803802,72.47926206036497,1.9789578013585305,-48.90673597164865,-3.8382321100389287,7.692799028360878,9.114494237663546,-5.698493351024599,38.64368037906895,-38.4146209643353,-14.181544372030487
-0.024,6.057510700024643,59.580897152767115,-3.2878446240740296,-64.12228879664636,-1.9969518777174518,-2.739230197731952,-8.206785089280464,-4.419802933675861,36.73013702071,-55.37976301022606,-5.488033611720823
-0.016,18.351846067755027,35.863353208332384,-3.941873861210336,-78.37736614248135,-1.5955957232747984,1.506499269839631,-3.6793168040974646,4.707678254667335,24.52846892137775,-52.64612882705351,-4.671510057787001
-0.008,21.800489232002302,19.220076565455287,2.455631059222947,-71.87874550394253,-2.6634804263118226,8.718092983867171,5.825012940953915,13.676167421626808,16.08707270442413,-39.056679033350974,-4.0703996140114755
0.0,11.453257621900928,21.307517127662983,7.129820438071096,-62.78064009093702,-4.451362921544524,3.9907114003776973,-1.238532598038203,11.849755787028169,22.410105438159007,-33.28641669590837,3.1490725801569255
0.008,11.49545918777548,32.66182012675456,4.198156840326691,-56.633601622446236,-5.604899685732399,0.21779040067735972,-6.2052287807286755,6.903702884066215,27.87492787813822,-32.447960662068354,1.907449989396334
0.016,21.754372172324175,38.871480186727155,2.305276332339099,-33.95414670358889,-7.035930003105334,2.6833287064414098,-2.170008621752413,6.004157990482057,21.17161419568261,-25.62208821555156,-4.268136455736995
0.024,16.017439043949476,36.589220242574875,2.3793365155250767,-26.16892303093443,-8.82449255873401,1.5166362677063585,-1.5551580729611802,0.7481864481303596,20.717461334124774,-14.192796960930746,-0.14257660121150764
0.032,10.254825898037478,31.011756045622995,-0.7767173786490051,-51.66870269158808,-9.427957878259964,-1.4797817891717098,-4.98381594572703,-4.39848916651822,29.010228000170958,-6.564446558446272,1.8195413886994087
0.04,26.761889172156682,28.45832023172674,-1.6785370433346714,-54.26541570959301,-10.746617861018418,-1.2140678830532106,-8.213898209705656,0.2551130039387927,26.17721594823425,-4.309195067529911,-4.206396618466161
0.048,37.37071877999457,31.15365772421416,-0.217814482266335,-28.906614395324453,-14.268608389926886,-1.8030100203487518,-9.459428939618881,0.9712966635734898,19.10864260641115,-4.691606966715614,0.03768445942848713
0.056,24.897415875199158,38.0299360018266,-4.148894604259932,-29.24473743441043,-14.901735910941303,-7.2986536037555085,-13.389345870086206,-10.051366010580663,28.39335736558322,-6.925515728180739,7.364272193326106
0.064,12.834228697196298,43.86858676943823,-7.530431541427542,-37.656880129570375,-10.715212254443923,-16.136121815194677,-27.503773761508555,-16.450151673411366,48.8182026448749,-6.400994020339883,-0.5000920786731912
0.072,15.021772167987388,33.94103898039648,-3.422128946315103,-27.84274213862849,-9.225054047301665,-18.086802883302525,-34.35943976788864,-11.14878877641853,63.489770108968905,0.9230080534931313,-7.2105151994653385
0.08,25.478459735742977,2.9299512163406995,-0.15717406393425093,-35.78437638098804,-11.652083679749358,-6.626714287526964,-16.575801113136624,-0.44126717174766183,65.66222604247116,7.3712895708808865,-0.9474810139155123
0.088,28.28604895146656,-25.35344116991919,-0.3614054370545168,-49.62298679610527,-8.773438163369617,2.2605312009374106,-2.591279123683097,11.209276397451863,62.77694196330243,6.24715567804205,0.8187492170159129
0.096,13.872274048313518,-34.059281811246116,2.845710963801986,-30.34876066476115,-1.7424632590700817,-4.409991725458238,-14.526352596276299,14.379014001224151,69.31009218637614,3.4597329384031217,-2.8162095360033765
0.104,8.598437656920305,-40.87430588400174,5.786271804171587,-22.123382782877485,-1.7584275227228028,-11.053822177124125,-25.108760401153116,7.484571983944394,81.72210634908699,4.825171997094223,0.20664071092082778
0.112,29.318747123285103,-53.82130857071048,4.091418449009662,-56.28979334046485,-7.4103761262617365,-5.360759968266796,-17.88286392422807,6.462602249614941,83.49792377218162,10.635164476150878,0.4747846557955707
0.12,38.96578641372476,-54.3498577563127,4.7897559692608365,-78.91430701631884,-8.869524186241486,2.002528175768555,-8.94578512091927,12.428940412962616,76.7769508943485,17.40415413949293,-6.003478247571552
0.128,20.48671189522382,-44.19478715293838,6.715519686660409,-64.4039926553108,-5.406696974307439,1.1745857454802104,-7.463223737275695,8.66791043500362,68.974643960714,14.46918816376389,-4.744947408230135
0.136,9.904696060655304,-45.35048774917895,0.3270208498313271,-41.9929921736851,-0.3703680326529194,-6.4105260177029875,-14.14174845973023,-2.660680100411615,55.791637154769575,0.43872957889304975,0.4540872068371905
0.144,19.001954929518263,-56.75516863741178,-6.931807514692421,-26.906623278619715,4.119403180253284,-11.224681572931374,-21.229197408296105,-5.788934843882522,44.027031849095685,-7.711249205420481,-4.177534670865255
0.152,24.547507627426487,-59.897366876183156,-1.627746639424263,-20.410028284988954,4.133054381668592,-6.300598141122155,-16.207629397895733,-0.6580453086754066,43.11790806310519,-6.846212118958632,-8.622418717146061
0.16,19.905617234830135,-48.72367322072122,6.273424548582041,-11.368845619529584,1.8284835677774733,-6.64242089849201,-18.05336326142699,1.3316170351402947,43.126519311329005,-13.702919033456672,-1.9427446212252455
0.168,10.038317565823679,-32.16026925472345,0.35034370447048163,10.261309702948108,4.784982761586771,-23.599173809236223,-43.00914200991856,-6.539358576558925,41.95795981065392,-26.124618303758663,2.053461771726061
0.176,-0.541429553439386,-23.01926801311322,-11.027832254192793,7.734099296074083,10.22835382403089,-32.144635068606384,-52.68994702366429,-19.464023201119225,50.070904106399176,-28.295247448857232,-6.681543692738191
0.184,1.8927141944851824,-23.629457924304656,-10.985673120752633,-37.20341563249629,8.714376170909798,-17.192504389483823,-27.953512023295385,-24.1727123097997,58.503367604344945,-27.070702602515663,-13.724233949805988
0.192,18.594475906469874,-21.868813819469597,-2.849293406230222,-59.64712522918148,1.2822123166910318,-4.360609474619313,-10.577516703384463,-16.76669449525931,57.277739630105074,-36.04565986104805,-6.728528342697381
0.2,27.561612855693365,-10.213916206045797,0.797013229819813,-27.08063290290458,-3.1276229937601876,-5.781240332148199,-14.001157205197567,-8.035580090276051,58.12593825886329,-46.30341923140754,2.7875015664993503
0.208,19.97324316809465,4.4078379235955545,-1.5269100538218794,-0.11211612730624212,-1.810659640778899,-7.712510693468701,-15.272008189393437,-5.9587750313285905,64.90521883139373,-42.81581981217089,-0.3653238258863225
0.216,10.310451108777023,14.586728309578085,-6.248629932921406,-7.590970357443369,0.17901695982029076,-11.541481976406898,-20.629508238520142,-9.777724921290002,71.544035397586,-26.784986200557892,-10.326859248345638
0.224,4.064995410026576,19.008324731427393,-12.021623315867958,-11.167183959326918,-0.09299969000931094,-17.91760659437627,-29.12724619273365,-14.772582404518214,84.09170737786091,-11.251797626381448,-13.837103384866053
0.232,-2.0608043304795918,15.454328823165207,-12.94673542016996,-3.044527169211584,-0.7452693143119545,-10.971523774315084,-14.471943363924751,-13.382651293571907,97.21093088007244,-4.979846229317019,-11.959714394292954
0.24,0.2639326677380793,3.174459890135415,-5.067140736548434,-7.656635840150047,-2.3079422057313774,1.7200016598960983,4.985201664172303,-6.667567251095117,90.28315599432034,-4.569638257946225,-8.306258182834236
0.248,11.533200024578392,-8.2401249381522,1.6333958652314278,-17.418604418414457,-5.971753350084748,-2.6612471394552255,-6.3019106283855875,-4.865611612487235,70.64822533604826,-6.972924973290539,1.2700050348737468
0.256,15.36093096219319,-8.345575889234937,-0.7854707054350265,-11.568963155190055,-7.822987771375945,-13.569860817824155,-23.67614988066876,-6.061739505800691,62.582902162021156,-14.34348443957295,12.300814331042616
0.264,10.323744516494166,-2.8548860791144355,-4.325001487125329,1.4261330448109433,-6.57379757778685,-11.186087827278412,-16.90486465804426,-3.341989364412434,63.8052730704212,-16.934970622553518,13.423954577458947
0.272,6.30017578646752,-1.1129717318300434,-4.0485222846510505,2.960087734405797,-5.5830181477293594,-7.197030337244224,-10.06242102123363,-4.267044220256793,64.58694465917281,-6.253636525562429,6.47999405679165
0.28,2.086494526105945,2.7467931270705077,-3.908713601663973,-3.7209518189633015,-3.562862312504414,-12.389060234103493,-19.998650879099767,-8.564383695411848,68.89230330545001,-2.3824479500242988,-0.49285439972904393
0.288,4.172618719794732,11.498278803759556,-0.05277753989391108,-5.337461308018099,-0.3766542971240404,-12.559319360045386,-24.35815057335898,-1.5385872829239415,69.24420176560663,-21.135597901161102,-5.4275228828258495
0.296,16.600050268869104,12.485604972072451,7.763691909950028,-6.601529723314068,-1.525150523493045,-5.040776953012752,-16.422318623021997,8.084669686938556,57.174154825076535,-41.488069482408115,-2.3751388810761433
0.304,12.964612767633371,3.2221819847974555,5.6321016074731,-19.671658271630754,-4.135065500355021,-5.516733092165635,-12.601195566993532,-0.6333516763872327,50.98013467814031,-47.53980603473885,12.694552504744477
0.312,-10.072134812950786,-3.4226900713442117,-4.3780126569733016,-37.25565667731124,-1.0159143395990156,-10.974315817220974,-12.278876960447066,-14.267419789057245,58.33271051583926,-54.50082001781864,25.0341114458085
0.32,-12.285089949912152,0.2665010910953833,-3.8629393352282575,-48.18046918548147,3.2046432798808557,-8.13360993456379,-8.828817966070321,-11.548426810980013,54.29561507731111,-72.00414316135212,21.08812841332271
0.328,1.9472954944203325,17.212222854393275,1.1476887802975553,-60.91599737802225,4.207204211794642,-4.536960992922119,-9.287310900107776,-7.099170498345539,35.50234895348063,-92.98056222979426,12.107674065157145
0.336,-9.148965385287726,42.75408493209353,-4.846097930695424,-78.4500954367827,7.01901963150876,-6.386207754945918,-8.91196473623672,-15.308277460386016,28.69793359690709,-111.91855763380102,11.395738472803384
0.344,-24.698551548233596,56.14774810591428,-7.064524425062707,-77.40780230226787,8.890001270875343,-2.0646728881760437,2.8672553861477907,-19.75483811378904,34.6667522533749,-119.02723835772372,12.723937312916282
0.352,-6.187737894715511,45.356561695000636,6.6201396444194796,-47.25935367978552,3.372777823905962,6.418147232989945,10.85543127356424,-13.062740016373812,36.2875946810118,-106.56452168091361,9.870406209247568
0.36,14.767694418916358,19.445517184625878,14.619408301633483,-21.359707706233177,-1.1729541054573263,7.948209044604456,8.584801270313468,-9.899729773732894,35.54781584554287,-87.41314869197355,8.497251497857519
0.368,8.00966113040494,-10.49880617497736,6.648305021822263,-25.63390646813765,1.8833681902407593,10.79240286532089,18.299163705992193,-9.609704446540887,30.023077011561895,-71.27661174751965,11.748647366668278
0.376,0.6491711394625538,-23.283077188533145,2.8693101298096693,-25.818894843496647,1.4940475103101454,16.210013404708086,30.468344672786824,0.24932180769184295,18.417550532483816,-51.551273673500354,18.225695240874323
0.384,7.521498809396174,-0.41763345666754437,11.708679942798028,12.19304065654798,-7.73304479115899,9.972009112471996,15.509343690490903,15.73652620190334,35.86129164721172,-35.76897989670912,24.977158644360067
0.392,18.769278812486803,20.507451061639635,23.372849354720834,49.98369028354494,-15.163261517888502,3.459274116473917,-2.8016431740235737,29.3147189286675,88.03262829866027,-31.85185808890192,22.697678377828645
0.4,34.86361248230396,-7.427183745175461,30.961290813583293,47.16211098190548,-14.723316064688436,10.807052854051083,2.296158608973285,38.30046569362308,107.02979905103147,-21.059908077263536,10.404952665504904
0.408,38.27654451898076,-53.1061830280973,26.069531357041285,37.745301781953714,-7.7127156551675355,10.239259194975041,1.487095300063834,33.35409653715472,73.18483472263455,0.26844835174478293,1.919323994163867
0.416,16.16764554638495,-78.8642494633058,10.213151633294476,50.25382045248254,2.972753395293174,-3.2216130117443167,-12.517061158406788,20.875149017980767,56.74342884007178,20.29240817911038,-2.2160395737808853
0.424,10.49044508009094,-111.78141792862786,4.230939561043185,51.05104965870915,4.313516895217894,-1.6061208241517793,-7.937274171299062,25.274839100277088,68.41107002083686,67.92672827421741,-10.122793094959421
0.432,34.01184224191079,-143.4048390078687,7.961933191873072,28.329083066205534,-12.492013903067045,7.704250461059908,3.1737492043094133,36.477574599761844,45.03826081323628,160.39411397014214,-8.202569624688307
0.44,29.191707970594972,-115.51347428047798,-1.98063936079284,14.542166064222636,-30.77067191607726,-1.953189482133847,-5.098565663051403,23.311127275059448,-5.4361805411645925,238.65779693032243,9.840445064869138
0.448,-5.401025247223224,-52.96117127118127,-16.38388855787476,12.2796846802285,-33.954505276875466,-13.152740667450884,-10.988699357552338,1.5623685920992931,-34.03057677259008,254.04756897232508,18.79867220041799
0.456,-10.5523903617691,-26.71710041267907,-9.11432654672989,4.052912129470794,-27.994397902014175,-4.4481510051947275,0.3093921186764248,2.4017923377430583,-62.46231521751047,219.6019605542222,10.751580651894072
0.464,2.980804902621252,-21.969370487745273,5.852442676780774,-0.1173629702480579,-16.556484808982816,7.586219233142963,11.161859112163055,9.668246717745232,-110.19160232250233,142.14007582292265,3.7922682104734227
0.472,-6.680455560130153,1.356421320990099,3.902305144501053,9.595936988559199,4.939972727221919,9.06101801480944,14.366483402330312,1.5589880268806016,-132.4927748613843,33.7174119328864,-6.298520706184063
0.48,-23.96415659263722,32.830834511197274,-8.857054626323565,24.036223274649043,27.378267474500337,2.7265487366038594,7.550687533933053,-12.728234750966124,-120.63284132945174,-47.56950179599036,-30.138896264354223
0.488,-37.48661350823223,75.40702667771463,-23.951230856772717,32.9400750320301,38.53860700492328,-9.52238298036552,-8.567586202330716,-28.61883874634957,-123.93301809168165,-75.38823677711203,-49.75538129682144
0.496,-54.96441193122231,137.04383000750371,-40.09008159681773,24.798619879105136,39.487933934165234,-16.26719925773375,-10.75372186287702,-44.91116738436555,-153.49068111507972,-90.46785492025856,-49.163494834337044
