time,C3,C4,Cz,FC1,FC2,FC5,FC6,CP1,CP2,CP5,CP6
-0.2,-36.29504794533177,76.60873580196306,-31.387516743470528,-26.334067505073197,8.17665083352827,-19.27708252245565,-21.14127208505111,-7.644175227007038,102.75970755759744,-35.43459475829643,-14.778365122140288
-0.192,-14.2614887245203,66.70740921284317,-15.02593418219378,-26.947683627631065,5.895816452784888,-11.564770086775102,-18.53736342903223,-0.40537794788982434,97.9939417591092,-44.18067553857198,-21.362157535126883
-0.184,-2.9372870901625348,61.22935231117329,-1.9209301416690612,-23.04142467427523,1.5586009805659915,-3.6226646102764164,-11.263115917142128,5.048726412898698,94.91518187923398,-37.70285098050679,-22.744587765660462
-0.176,-18.66729218993306,57.335066959228215,-7.229999173784634,-26.862600693122346,3.6000722693588743,-4.948561133318839,-8.653504945288002,3.0740229358557367,90.41517810136637,-27.365041044080115,-18.500705670869788
-0.168,-20.972675827735713,46.47423831144168,-6.509850791180133,-29.636884321028887,6.183755204740546,-2.414843939662013,-4.267945818488471,5.977751408389407,72.92063138579546,-30.30639731568623,-16.099978334083794
-0.16,0.7621312351639241,24.223383530752724,3.7819471898853805,-28.0189492697978,-0.22709776867212633,6.705111444669136,6.398322709800211,9.222074225659416,55.064560316972035,-23.152968188778203,-10.230926853881906
-0.152,10.856874267502228,3.4353930205929424,2.30710112843236,-19.629520488641976,-6.705961192585147,6.980591966225276,8.869648644682675,5.88153216539555,53.311855319178754,1.8083083231030448,-2.0364265324825945
-0.144,3.3227805016873115,-5.439716218899887,-3.533196707718156,-18.083851975051566,-3.4172031463237063,5.263614200475921,8.689041316724285,7.508460364440759,47.33792930946713,10.829561426303655,-2.626021660424159
-0.136,-5.618981272864752,-9.213369200210437,-4.733299529436761,-38.97521377976154,2.6395458763432087,8.54058402260246,14.476086112222227,7.881727140982198,23.236327121088063,2.204496558993964,-5.6781357009483955
-0.128,-12.367820693975027,-9.018906333264027,-14.299497321131193,-42.87587281569163,4.67309060022746,-0.967746958743665,3.7009520805096505,-4.9942997005268195,9.597812351856515,4.500274143026837,-3.0771694935060663
-0.12,-12.709030064611838,-2.1345567142401807,-22.891185847810377,-7.080482528796257,6.356904900114229,-15.985201066187974,-18.768909892947157,-10.842177871915203,23.300893376561323,11.492711592863524,-7.767782705618338
-0.112,-8.258796111445422,-3.5820344158048885,-10.503315582670858,8.398924021481305,8.87362163637724,-7.013490100287042,-10.899208729654594,0.05596303246176141,36.38818342530052,7.915498044926401,-21.035041693998398
-0.104,-5.804769805648735,-20.5423207660009,8.368972345013189,-11.533021748083456,6.975397409107322,14.136317761708813,19.07510250860383,5.742678781160851,19.539826831879783,3.0797524543144283,-18.24400755645892
-0.096,0.5837320541235248,-30.988521446230877,11.172242889678492,-9.517215312288245,1.161649981726885,15.544414743968542,24.13188826768804,1.752759699676842,-16.29392010006294,-2.0513628016374716,3.575569557725833
-0.088,6.508474899888216,-21.977477997251587,1.1021275271889375,6.384329805685513,-0.03925371024378126,2.1662509592331713,5.265361549022864,-0.7208507295167779,-34.927691294225326,-9.96747233773836,13.651504368745456
-0.08,0.7061504572537382,-11.405060275344784,-5.867618677936116,5.282004652008692,4.289068169987587,-4.585432534978112,-5.45135676276632,-2.188645266606917,-27.94229671658053,-7.395413645181936,3.0436122391606757
-0.072,-0.8808919377327941,-15.152466285929362,-0.26499216074346954,20.854882026398688,4.750488628418149,-2.4889114078648436,-3.992241983871177,0.40026951505317065,-21.85953064974916,2.044553951821462,-2.0248922062783277
-0.064,9.138443457554752,-27.305674606308955,8.765428572749041,45.54021209186454,0.8771661255075153,-0.21933574954949145,-2.9362481606597783,7.499976765150119,-25.995940416843457,1.4681028954750046,6.9217236507151565
-0.056,9.528114637810146,-35.45516743757245,6.65178146674525,29.32011243273929,0.5313212530430818,-2.0038207342323937,-4.768614414471061,4.831942241555713,-32.2990056395677,-2.1976717777008625,13.004944374916352
-0.048,2.1087594393064286,-33.540705092226474,0.6496492593784706,4.10268543784988,1.4989202148457916,-5.24417466004479,-6.553948612588915,-7.873335145332067,-49.479812766104125,1.2224961496882787,14.1800608040546
-0.04,0.3233766549881844,-24.17043738471923,2.3292289641586623,9.770996883899027,-0.3722927801077966,-6.672931717856186,-7.698937606888512,-16.53385003789506,-71.01932145389362,5.28403143629857,16.609674679414084
-0.032,-3.57610630543276,-17.10110215699384,5.862913008574611,10.74763036093603,-1.8792266624429674,-5.240460675105621,-5.708669673934534,-17.458489529189993,-71.9086409500858,10.959912978895373,16.465610694876645
-0.024,1.3291819893768122,-17.681029872716127,10.037778593710408,5.182990361206101,-6.659658182061203,1.995982197105625,4.5625195143526875,-9.545874491841694,-70.1372022166449,22.66260265112283,19.239328672432137
-0.016,27.03742698426432,-18.648425273771224,18.012716894058656,32.30930847282548,-16.591175255098282,11.154174115369795,15.84903167466678,3.383441564855904,-92.34625502420714,33.483281374121354,27.99759166056262
-0.008,39.5721439451751,-15.4691553022376,21.60902094810331,65.43960203767776,-18.75376371295482,11.299956537614344,13.353146529603308,6.403543664680094,-108.92124173718857,43.75974847166836,23.668020105490296
0.0,30.57259744530002,-17.18745236827226,23.516428072068287,65.20311015467077,-13.39643812618721,8.46242994836505,6.270237124907417,3.542206029505174,-103.6511697702531,57.039115935555365,7.8485580233844825
0.008,34.71401297997863,-22.27999172580412,29.450383991747255,60.0412255546998,-14.763810565481794,11.752995020315996,8.835643169495308,7.883978140369161,-114.78221917521377,58.738699089020564,9.499119957580621
0.016,27.538452587783937,-9.80595879255723,18.420274558349263,75.4455842907023,-12.918165100113022,2.8855481953691307,1.3419622219507104,0.9011608789043556,-142.15382392328488,42.25714442493202,22.185393559196275
0.024,-18.95392926959507,17.134410546306867,-7.163168456358252,84.89440811476321,2.1172837669539266,-18.890130632511354,-19.802050439882535,-23.835031298946404,-138.4197743503512,28.808735645532803,16.96810199556374
0.032,-27.187561534248374,19.96358813015767,3.43393706944315,65.22331729802573,3.521226749850933,-10.000093750677117,-9.429538810100906,-21.31219867807229,-108.17949064406464,27.6412349630883,6.326524117838191
0.04,39.289483443666754,-10.909114172679104,49.61829858709152,31.919231766159022,-17.94397109854167,30.533491222123885,32.40497098640074,20.05180106658316,-99.9919017398976,23.292002588054082,13.576084389498707
0.048,71.34418854089033,-31.41790201450706,58.93115949583392,17.543754015180443,-24.91142779660193,38.657347119510575,37.74748145226527,37.47582367312939,-117.90237057437864,16.87619344549267,22.592737279621065
0.056,20.622498216250186,-14.165323544206066,18.775014197900695,36.00169898732144,-7.430963390469944,2.294359292319911,-2.311586276608081,4.774589146079941,-121.50069727427469,22.179579847015177,17.556038681762526
0.064,-12.058198631985748,7.567362817151361,-2.162054303897016,66.10630847745979,-0.9575155151401452,-17.449521886074145,-21.57057810482176,-20.321471376696387,-94.19055728770728,31.00041812317068,13.665502829790343
0.072,18.588272955299157,-4.3967970262552525,17.84298484081307,82.46717047050115,-12.631143024342338,-2.2233718190739356,-5.813275894456325,-5.357875835755918,-68.57194026262947,35.32598826619038,17.015887030543347
0.08,44.90724642728571,-32.127797912127335,33.921846763919135,93.50193650566389,-16.50787081407685,8.157587354551772,1.0656177483139704,10.577155668809052,-75.70597620399985,46.09401640259392,12.617546569071331
0.088,39.64580413083002,-37.666508232168134,30.55865694910674,114.4121053118339,-11.964389629949796,4.440246282094591,-4.023947203058242,6.607883451450792,-91.02138821171756,64.19992501732114,2.429940513732409
0.096,36.02147440756847,-38.17358875534505,28.99858541619406,125.82149569883731,-15.629255743836996,6.511250486888043,1.718604329762653,9.02748304940339,-81.87610768375244,87.8603564054649,4.443020688456502
0.104,41.681635233374564,-75.42512395134139,28.93663896829621,111.14172473742468,-22.001314142490244,7.105506312216488,2.3470783629620344,19.685844197861883,-82.04700417317778,127.92782160180559,15.96351467847669
0.112,46.94514458154651,-122.94599988298965,21.510003507260926,92.13608029612026,-21.226355623414815,-2.5228109598530537,-12.632834285399092,15.885563180821553,-128.30170359391653,169.00419897575367,20.236532899758977
0.12,54.7878615709203,-121.94210978191407,22.78963280910642,79.66873835110829,-22.841619051552403,-0.11081909585626332,-9.847045792072358,10.531779861270609,-178.58082842196575,178.20915721288094,19.698792131523195
0.128,58.95348195201024,-85.80903108740685,39.51698880075878,65.3588176011247,-30.48054742702441,18.06969868438398,15.329343193718596,20.708679665229628,-198.01497936780765,159.75166112089053,26.634782305501005
0.136,47.27803662672609,-63.77627811754113,44.29342817646409,67.22991732119027,-27.90142804505296,19.96198363799218,19.76197382258423,18.669522975490658,-222.29865723841056,128.69439726109198,34.544878506136975
0.144,27.442410100178545,-56.27779716562727,24.297517479435648,82.02620168506152,-9.64943638528158,3.011157896126579,1.9248699871839672,-10.695296710317589,-254.38620902465468,79.47931658301654,27.541473643770843
0.152,12.082045500781293,-48.597247123043545,4.8040437262657285,67.28769213298864,9.932494488696468,-2.5273546777171734,-0.1422602240726365,-35.61318193144236,-252.14997877392915,27.11174015940274,5.615798518869149
0.16,-2.5363585598868505,-46.937732563254855,0.15750666000200766,44.13365651644195,24.212580131233217,1.725835457591303,6.879733584057381,-41.62252998126721,-238.7876019818523,0.9131746202930783,-17.380718300899648
0.168,-16.871144376716654,-44.80870801821534,-2.4205342578503353,55.75726960409766,34.204880246188786,-1.8649378862993198,1.6856013643710623,-44.487523161186886,-257.04679856514167,-3.5407044087056647,-29.32022592952865
0.176,-15.395157229209495,-27.258375854389985,-7.262366472481985,52.29924039252274,31.85008183901248,-1.4315405239617354,4.601888602047406,-44.386070098625844,-279.9926259347392,-4.692309479607524,-24.710102926795805
0.184,1.5536508902902844,5.032737787845506,-9.664808457001069,13.340104876750443,16.577253137862122,7.561397339239455,20.298171945289585,-37.99558418609307,-287.3644886633242,-5.373225785524931,-6.885413102063096
0.192,3.9887294289948665,47.514094331794354,-12.676267225948932,16.87836768280564,4.860672170209408,5.74529203152366,20.819533678321825,-35.545899882574666,-288.640489684029,-7.196199386422415,11.336527812875419
0.2,-21.338673933792805,86.07811059918653,-16.181906837679104,56.3177235060284,3.9841451540088775,-4.535056490317167,10.196237309067707,-35.879747256507486,-252.7194135771623,-15.30344529548599,20.66341427837002
0.208,-42.508644764248935,98.51674267774216,-17.34245575566502,57.44248880290628,5.331648157046031,-8.56292883847591,6.1790560475335585,-31.360235641754716,-174.98489777117413,-28.861927935087216,22.899200546728743
0.216,-35.97596157700738,95.12978493681662,-20.85941075424539,54.64918058448841,5.328650047300809,-11.89388597482859,-0.9913644119985491,-26.015899447024147,-121.09124068166068,-36.41321593369198,17.68752332566127
0.224,-28.647835334867306,106.37201077967104,-27.526282661379557,89.08758819353898,6.507697347672054,-16.43768862799049,-8.908268549186834,-24.148557256203482,-105.77024025579306,-23.267113692031746,2.8192590953667613
0.232,-40.97790651969322,126.91570170349226,-31.097057492351034,112.35112834485065,6.2184022818149405,-14.647754657169516,-3.15879133762273,-26.05101883708851,-87.10855332081672,5.131255083238937,-9.939845458301011
0.24,-46.17714954122553,126.72192502655768,-29.18419929766221,119.31601596367332,1.9984107947284786,-12.513470604922357,1.665662214293461,-27.96070583299113,-70.58885062612816,31.209815350359715,-10.431225135831623
0.248,-31.790931471064376,98.34246649264541,-21.8705338619266,127.50264931780778,-1.3596557588529343,-12.473480987923143,-3.446915226698313,-20.247341905097567,-71.11265446626268,52.771796869034894,-10.15048246182546
0.256,-25.879924838015466,63.07761738722658,-14.121276164176287,99.1877185981343,1.3994490864434188,-7.016517945471494,-1.3131156451044457,-8.86941647566928,-66.99784883659602,63.45745918620501,-17.225812592051216
0.264,-37.969141379853,47.93864835551191,-15.834097282007145,65.94876452448341,8.506876764345051,-3.6538795724283273,5.088988905316375,-10.701309588954224,-55.4459290460061,49.58938147332674,-21.26884840325987
0.272,-49.48652582094226,52.6408654778666,-21.597486889703752,91.12127721030451,13.718981408901158,-8.041138319436218,2.9912007596352153,-15.91871863752442,-45.86037030112681,30.31873855642525,-18.819542331239347
0.28,-52.13666389281602,46.21754605638631,-17.94275254880657,105.9958228354426,14.51773666529141,-7.272350751398841,3.488695797583815,-8.199440133500826,-36.12526718904279,26.934515554127405,-15.45441783706794
0.288,-49.15037392432402,22.09277206846234,-14.399389300246314,65.72349026774371,16.343744011497567,-2.992126518372947,7.563100549486391,-3.320380545388836,-43.165845241714834,17.68956752922317,-11.735836605885721
0.296,-47.68901478733156,12.93194606417309,-21.79236417610682,63.603825979170985,23.757484470193788,-7.728537951342902,1.735195246713213,-10.94903108135646,-66.63815259128755,-4.422408121367545,-14.032012963995735
0.304,-50.373107375615795,23.622885349254798,-21.244919506326596,99.19714873338962,28.484265726698048,-9.760249150601641,-2.4654749294797385,-7.91629244558457,-67.65604723627833,-10.610525564980257,-23.144224696130177
0.312,-43.66648253438694,24.252418254948903,-5.17688326339978,71.73735415361277,20.947139524686065,-0.5002915011396214,4.948823661903651,9.556462525208163,-50.27242765512493,-8.6905658994858,-16.455644645990972
0.32,-28.149129398180573,17.83490930293337,-0.26288555314913925,21.884377839394585,10.743181220350966,1.967961325196241,6.65147516628237,14.55648798410183,-50.82407770067369,-25.216001378097545,7.080288036214392
0.328,-29.800540650019745,28.828278712956436,-13.43211622120673,34.088302358558515,12.721134267394957,-5.659844577165579,0.5292356850393227,3.1878913801982116,-54.87112981526492,-38.06668362475805,9.852543396699325
0.336,-49.848793942969465,46.915719660380354,-22.98639515774692,52.56831018029996,21.95730258209826,-9.47986766225401,-1.5550080051312454,-8.52888316169372,-42.77395053617203,-27.761168972847347,-13.00569923635319
0.344,-57.6154406992389,51.837764959594935,-23.059360805784202,32.18376607422412,24.597286236689648,-10.500529092028339,-3.912948668776477,-17.637791066782853,-38.34223416308291,-20.14934506702415,-24.47991085966694
0.352,-37.83011785375314,46.26002579715551,-12.463595077602676,23.215362858761946,16.650416530272256,-2.995927104244991,3.5824191371759246,-14.497145971584956,-48.01738006782101,-20.773750459350694,-17.581753038421333
0.36,-10.906086023152445,39.28561019941975,9.987975918658117,30.34645918189589,2.9430161428248827,18.429697727727305,29.615653501814005,6.887210868745817,-49.00305480900389,-6.554563600072568,-9.557749834515743
0.368,-12.08094326971331,47.145112611092735,12.277064119967235,22.660281651519607,-5.319216195521298,18.640184143447737,30.29028491511557,10.34336283039298,-32.831383200376656,13.25104083599516,-0.9405654123682203
0.376,-35.43187546833051,75.68877185312279,-18.385763269210013,17.498185375497798,-1.657018008547135,-13.545010730931406,-9.187208826939443,-20.117552698648936,-7.381450885289963,13.909052484556717,1.200384203948896
0.384,-28.270850210796095,82.24866906474496,-29.942244332083074,18.75503077531453,2.05994021046251,-21.959269930318108,-21.558602135095896,-30.865006191869515,9.472116297734036,2.826342800516248,-10.473091001353287
0.392,9.180187435141924,36.24645069466594,-4.446960348142868,6.104109604027213,-3.916003933151883,5.308540626938371,8.41014622444971,-0.9578118554703429,15.74714142738079,4.892595933719859,-13.685797695832084
0.4,18.625848853855032,-16.804030513460404,7.534843596467197,-5.509233353077954,-9.37478394473704,13.16130265918548,16.252813876902557,17.15373442415477,43.363233900040974,28.989330048699042,-2.770822442211777
0.408,11.140805823828781,-39.25716930043737,-0.19523795741835062,-8.311948838686416,-10.141090835293049,1.6923851224939759,0.6121781826285545,11.528061936974701,84.94902789714997,56.23203814425522,-1.8858153793864945
0.416,36.135698090564254,-53.57236383757437,8.1656622600994,-18.94858991953165,-16.60673728350342,6.722041795094949,1.7834166740378703,19.420867737765974,82.3323844392215,64.5374516192526,-2.0624716374523997
0.424,56.0823069473481,-61.75431777232488,18.013045014188684,-23.475739260422703,-25.189808682894707,8.257704539869215,-0.7239680994770373,30.22734733706738,42.57009055600683,65.57687027834096,15.674024883460334
0.432,31.60054999534042,-45.44508630518418,9.74251296075037,-12.67795590148826,-23.80346332636585,-6.351862141414172,-17.250551812923483,18.54928696904208,23.883378410892615,74.71349024317038,25.86061427227741
0.44,17.894771294544,-32.15831791656646,9.118503823687142,-15.334335441324265,-17.896249630878078,-5.7786276279351965,-15.028263327552684,8.75668266137021,23.4797079588788,68.54186701845843,14.025723915684376
0.448,40.19378010454851,-41.554237964865926,18.56897731166253,-36.07439899022623,-14.563099471046131,3.743067630429178,-8.119415446506789,14.274988449119956,23.908109792400705,32.89499180057979,3.2747226276369874
0.456,43.006187696210894,-42.77140374468104,14.069453704180255,-55.518020217593175,-6.976161844238008,-3.473222987060873,-21.944799437219473,10.264521491337188,43.924346527509606,-4.607143245226016,-4.233510418343889
0.464,22.570866190221462,-31.443855716736323,8.712362797408964,-71.36792847599357,2.5211531490072145,-7.869438680190187,-26.17033949772454,-1.5894699057002173,64.09745270134069,-28.610065193439635,-14.217645868548203
0.472,28.162790067809755,-38.49188824791791,20.45736045893942,-71.92365082462801,1.0148185268008036,2.993360604161123,-10.92039368405255,1.7588472251367548,54.33023431913227,-47.50332887026594,-7.251745816983249
0.48,48.47050130099018,-58.39039999297942,32.09267890306947,-50.41559544944091,-7.738759498195146,8.671485336564421,-4.25015309353301,11.721889100856858,43.48546476171114,-56.14818332274246,14.706365332961774
0.488,48.88725971885009,-66.20281442136385,34.42289614446422,-39.92973902863242,-12.562132226710798,12.0109893734881,3.916012161355981,11.574210357780531,37.6903633764755,-49.88847260597293,27.926183207382557
0.496,47.69503851073709,-62.99530096456356,36.64791377822157,-50.867267825954244,-17.01821688360456,23.309359508187278,25.174481808945806,8.959522886006356,5.293742082867803,-39.367222852108085,35.392422008006655
