time,C3,C4,Cz,FC1,FC2,FC5,FC6,CP1,CP2,CP5,CP6
-0.2,-19.887771128431517,43.87672271150094,-13.41197160415102,36.07086110354047,14.92140708038919,-0.22086987062957697,4.024707637478133,-2.354257070705088,-38.290805964903214,-11.6979098276221,-26.43175371927433
-0.192,-11.571432680667261,35.70602582368094,-0.6240567074797613,19.807532709045795,14.370067181851741,4.602301496566241,4.562470928963282,5.260717484692454,-52.70991504806149,-17.2633765044296,-27.767615463039643
-0.184,-13.886483445064792,32.60934757663953,0.5662931501995644,21.639473388671668,14.017338568091711,0.9759591886601114,0.045792644312625315,-2.499376249565243,-84.85081609006751,-16.00296251850337,-20.67600558010489
-0.176,-14.616350834840594,42.280452620472886,-2.4534124672417383,19.483914467870957,11.765208121991542,3.2940000474144124,6.509345270423798,-11.701053758258105,-77.68550084528806,-9.59551878389675,-23.609271171998483
-0.168,-10.038805005829108,42.577880553062045,4.524796093095817,12.844897535123494,8.145708085581457,13.606566289920824,21.567810451724245,-12.394868257654796,-48.44656360755376,-8.771724655583188,-27.766316301158202
-0.16,-20.114631796272366,30.466356059310485,-0.7086410229423243,21.51939829779696,10.64849240891078,5.8628635694837685,14.32811883255417,-21.957806810027282,-54.919797941553455,-15.069255097987968,-17.093659370514448
-0.152,-27.710326926839993,20.06637483155229,-16.31984977789502,26.973030306541375,14.158819898674693,-9.28787902674852,-2.937363375681596,-31.721458564411517,-70.26035849732091,-19.05157327894704,-5.689589529958194
-0.144,-4.993413577333596,4.974601617761602,-6.299215367130234,13.748515407685149,8.442489837369672,-0.8890938694639721,3.327238195566567,-16.342034819320354,-64.74350840641382,-20.09441102767036,-2.8899588285934663
-0.136,11.258493889689172,-9.091930009511524,10.83110745314092,7.298192546049886,2.095437346053242,9.55815183029413,12.566135189922973,-1.8495779065301692,-70.25525831331458,-19.750601413853662,3.9223497786753443
-0.128,-6.967273669799224,0.14215111112666476,-0.10289452932986529,11.512463110204914,2.626563963770279,-0.4203650830537045,4.545205115514838,-14.507872011100174,-75.65842404444449,-12.836300968191356,12.922703853892928
-0.12,-12.44542123526825,20.978948126850437,-7.597359311236274,4.14111768445769,-0.2118783482848905,-2.8655174569053004,3.8833933710618376,-19.73637652136451,-46.97425847332271,-5.173576408006262,10.06517283117425
-0.112,9.020917434660042,30.410601308287955,7.2716864833985575,-8.0716614498473,-6.808564947483121,6.854303016634857,8.646484122863882,-3.0005841968257543,-18.102244334005405,-4.986492218516193,0.5863365079753857
-0.104,9.495920576119149,32.584724451457035,6.490828137965801,-11.257855869946141,-6.472910430079179,-0.8564352923295974,-6.3334341437617665,2.015191030790317,-13.203702669388443,-2.8139922897503324,-0.023105000197829805
-0.096,-0.17159760070002186,27.948664015395774,-6.303021722433782,-11.838801618949068,-5.823543720307368,-12.740113470654832,-20.29034653010836,1.1127601291364904,-1.3391932263169475,6.2479535024193815,8.102294081541183
-0.088,20.807182957003622,11.729800622278052,4.501308460796107,-7.641377092559806,-13.527320731275056,-1.7612178673374859,-8.42316193219487,19.797953631889445,17.28919176953887,13.309564421283504,13.249275323837896
-0.08,32.42973166794432,-0.2501737929841248,14.961849721041474,7.649518728065702,-16.800632353503552,8.078490571233349,3.3298253935066464,29.306702331699793,21.883560144670348,20.290805846805963,11.985791201193814
-0.072,1.0176018160818776,-2.8445284377555966,-2.485117995780188,19.63265623606442,-7.983464400093899,-4.426021000772294,-5.619814018691388,9.085901046268262,33.106079865635294,30.611157872032454,8.885274365295635
-0.064,-16.416608599381387,-12.266866030966753,-13.13079856032618,12.563395415473835,-1.165915909277766,-12.055152219005672,-12.605489715855724,-2.994637040386201,62.338987729506016,31.008379892623257,2.974387226887322
-0.056,7.96468367467422,-25.137003094196665,1.6727988242688596,-7.712886278639954,-3.5988484199959374,0.15580670666610294,-3.238263611225184,9.288959699338315,79.19492832681598,16.430477157075586,-5.072229527306074
-0.048,23.480048840583677,-28.20739515360132,10.461247668512927,-21.681934443342243,-6.129342446127626,7.402218221158227,2.650623808794537,17.278838064624498,73.68337217451405,4.657934008595951,-5.2691667893492
-0.04,13.50020148982546,-30.12045901504232,5.341292598303254,-20.366053487344796,-5.310600782440023,0.49654378737407995,-5.155904455342036,15.342812614937122,69.13919749149456,9.50166299147928,1.8708402432964992
-0.032,8.69905925105321,-39.7787171944245,5.967637394655537,-17.9540189484441,-5.854662070501184,-1.6852919555914747,-8.065671040879261,16.279535972201515,72.35105072456136,21.24843861829878,5.221415071019179
-0.024,12.082058159712734,-51.487172866294316,7.09533374458868,-25.146686985765964,-7.557661894958562,2.0043402715316456,-1.064533358319375,11.966474358198639,73.40025166811071,21.452225579876334,8.991943471590107
-0.016,9.498579826996787,-60.50569025014848,-2.018056045128749,-30.826086762975926,-7.08485856039532,-3.1478976143450987,-3.2493381271415918,0.5384284315495635,74.233332068164,8.322540138306874,20.333889739543803
-0.008,2.091209613605055,-62.09150032387678,-7.386667051857896,-32.39062101682797,-4.293646576472385,-9.692591979347975,-10.883535916630626,-1.544768150792677,74.77436666507498,-5.385665450065045,27.517101844944946
0.0,-2.5255726975212025,-54.57121526057425,-0.8451175670344725,-39.996982981949024,-2.5676809014884676,-2.8430982907522515,-2.1202947368557497,5.330396561615437,66.0460288338685,-14.587779585774138,25.65989574062642
0.008,2.1203492231764405,-47.27552144540222,3.4398229685458714,-44.26979611644818,-5.726482339933654,5.950217589503284,11.580619276941793,8.212409017019057,61.82141974203699,-19.90656745501326,28.218754018890483
0.016,7.06339559631465,-41.28431472092023,-2.49216097568195,-33.52094075347337,-10.882757042689509,2.1446314266976856,8.330259051402594,8.185201741876863,84.9022037848392,-17.412314015160145,35.90310673222313
0.024,-1.1489620278700443,-30.164829277441452,-7.843368735512067,-23.067772110400092,-12.550051649707688,-2.630137821796316,3.2855067341148256,11.604324723210896,119.09855098328173,-10.171186674603632,37.80614848583329
0.032,-3.528049993583234,-24.295489299690065,-3.7918487996505648,-26.54121714322097,-14.809101390929968,2.134693441772942,9.863804055825673,17.465749195842612,135.82901704392896,-6.244087030104168,37.48200029113803
0.04,13.46490595554746,-29.552379087041913,1.1680846083488203,-36.51279243873376,-20.763157442648694,3.455396745509245,8.082637731408026,20.0320882573028,138.90995478796756,-5.360721396123008,41.31256405959164
0.048,18.728419781449254,-26.27060149839311,-2.5908118399738114,-45.02413126071249,-21.90973350071606,-4.592971040967892,-5.169441178259788,14.907964120840216,134.41100522345755,-10.116546368306432,44.15219970529651
0.056,4.248276529250388,-5.627498130680297,-6.236641315263285,-44.87036727307929,-18.022946229029632,-7.505008297539128,-6.482111516011428,8.971541810168585,121.44719458900096,-25.251640736257794,45.01931568200905
0.064,1.5616428981600723,16.17970309390218,-1.1210125938992845,-31.89031965925063,-19.52217117799896,-3.373471934917694,0.11634870985222509,10.13610226778649,125.19035611742642,-39.701025025049546,46.842654324648436
0.072,6.013777172103115,28.29801327508198,1.5933883491277139,-25.068036474149363,-22.21626195856177,-5.50811231436542,-5.368711550337019,9.218779459141679,154.60247175234664,-44.495096658332436,43.74774268151182
0.08,-1.9100244544860345,28.350518412888245,-3.9671662399267547,-37.09760815804976,-17.190418461338645,-10.53460706570395,-12.274037903862421,2.2766703637081447,168.1960941830345,-49.83127096135755,36.206638761045944
0.088,-3.2558516713510133,13.290288970771952,-5.908279525727169,-39.36754004815063,-12.752893622978158,-8.43923595225368,-7.980891311148663,4.416706194741678,156.09896327214148,-57.943245514606126,36.82544630643554
0.096,6.604684328135577,-9.271703571506256,-2.57997941574979,-18.54734491944189,-14.621395129769796,-6.739460386906716,-6.725459051198603,15.441687124046961,163.94133138014308,-55.55488212427738,44.0021608608932
0.104,7.383461328586798,-23.15777089405645,-2.551697670127087,-13.735554961621332,-16.08988148525326,-8.723873118506239,-10.494839772510028,21.07903227344816,195.90581352490585,-45.9145796245077,45.49475466029849
0.112,11.579880976539652,-20.35664859883899,-3.233343355585374,-34.20544193014301,-19.193290451619472,-5.465107789553573,-5.994366339471686,26.210189152613758,213.95580002815697,-47.96968913948624,47.590745597318545
0.12,29.283611491976874,-10.341667962376247,-1.5417256277258402,-32.018713803094975,-27.333752982899927,-3.071312127813362,-3.798265531387789,34.220977682171316,224.25531728688122,-57.560499102578184,57.91669278728276
0.128,33.40038604769913,-16.139429875343374,0.6921150425112504,0.11940467117593126,-30.31212682509951,-9.06726127791175,-13.78742150859525,33.33434977919502,249.2184064910337,-50.708012882822224,60.94641479344129
0.136,25.718649065590945,-48.35442234012636,8.304016133148611,19.621038389974604,-24.900674966964125,-10.096920894127734,-18.298923695653603,31.93138660968379,269.88346189848556,-29.65038725230463,48.76962484942345
0.144,35.066365078983836,-94.1171289969752,18.17381499832633,25.015250253847594,-20.45229125748039,-4.11223129414893,-15.563481803597801,42.04150087061569,275.38854321587644,-12.576775702632103,36.412486285336136
0.152,46.53624042600319,-140.401343048434,16.00398031403657,40.199209630800155,-17.750072155660817,-7.06344987641672,-22.213564041741108,44.19197603615128,279.1840007743048,13.467191237874188,29.284520912432864
0.16,40.04984738835305,-169.55788001801093,5.3424885044867025,49.17844116325889,-15.71921981435299,-12.980373605237787,-26.47834148579692,31.85174911254951,264.1153336470413,59.713540065949196,23.55831329086775
0.168,43.260237065533055,-152.12308201920487,0.6377152616859246,33.29368107385709,-23.32437166746957,-7.225934782857769,-14.600782176692514,29.545772268583423,216.24807206354413,98.00320439953428,24.864810437350922
0.176,64.4509764200235,-99.95331583555912,0.3629509387174285,10.518636028481412,-38.22886348320544,0.04636608679148229,-5.533490765564151,35.9044453611717,174.97363208305003,118.31301793720738,27.635237942251145
0.184,64.36369077605924,-67.82157470781057,1.9715531941243392,1.9798654483167364,-42.33976459910734,0.6937076528017296,-6.271992273428656,31.22874488073326,159.773164292756,136.58324537279861,18.40063860738909
0.192,36.79896623958357,-63.29136822255008,10.396926542832697,10.885983771146021,-31.784500621482106,2.6781901114409634,-2.74962941592716,23.666675473776003,134.71638504564794,128.43647655755262,8.977782750249748
0.2,21.268250925369756,-50.159709646672006,18.412920978597572,23.898052445811693,-19.874105417010895,3.388282969092908,-2.0311585187794248,20.444203161165035,93.1532218994261,71.49981629389393,11.074801643399324
0.208,29.485418600536867,-36.720454194240354,17.460259218016013,21.10760188677357,-11.477071503096896,-0.3678426534959191,-9.887319847943365,10.455981638970107,65.4687494069529,12.848126626178242,6.7906179792584265
0.216,35.33816240799362,-44.359476794127275,12.926867048601682,10.142535230895758,-2.753055929895462,1.5512210149161785,-7.608909794558166,-1.5672903332237824,50.28120356747586,-2.8363691320908453,-11.545135116899697
0.224,26.007964355468136,-39.55553032604349,6.257332415313798,13.286066346320734,3.7714118274527566,7.385396902135255,5.271449853929126,-7.025844908519385,34.38448881051632,3.74032853011946,-25.752331643195863
0.232,15.918828342781607,-3.1058020089518226,-3.7803107760290695,18.045607877986495,4.115218528419693,7.832338295101139,12.072485927417725,-13.291878733479525,21.175752953867036,-1.6593190087956633,-26.741123690475106
0.24,14.80505026647491,23.131902617109432,-7.541087927936235,11.557242742823638,1.0651566697030312,7.947627091071382,16.025956189317284,-18.2257406122326,-1.8372856671117,-20.949544424192723,-15.195796774321161
0.248,7.416324674586748,26.95907077305346,-3.827032171046819,21.311462492484996,-0.4594114425638334,8.409120560355458,19.72139931152157,-15.756479934632177,-34.973620756352126,-36.86543544356166,5.1652197070337635
0.256,-13.966280891955824,47.159862432827765,-1.7894848718440766,49.86817913957073,1.3123985341244777,4.570561277299011,16.969366777978486,-12.676710583943454,-37.745802496046906,-45.27856141336146,14.333354616795077
0.264,-20.602450250366093,82.49979781018902,3.595850520858748,57.11589675767908,2.291266727910284,7.667553568302857,18.4170941105383,-4.5934303849213824,-3.8041655698370693,-57.17610394758035,2.1435038254126266
0.272,2.6935208131635635,94.93210190209687,14.972084383230658,46.93284878985248,-2.6482418709884112,17.973740986449446,24.567980633111205,12.951778274377045,25.28140663029594,-60.374314878736044,-11.366124443575725
0.28,23.63709879128506,79.87764818056662,16.739578263113547,57.472268342560206,-8.770880134651863,15.530969967737589,15.823867750802801,20.049850363988835,41.086551377295265,-34.31249440508051,-15.030739763758522
0.288,25.33342835016699,49.19939355135496,9.378459863142199,75.05860099694634,-9.244252606534854,6.505036768621705,3.606462854525772,14.910260827255087,55.29183405640888,1.480210803833407,-16.895341841984983
0.296,26.66807565829668,5.443189480701004,10.228829696790894,67.34311803484646,-8.557064394401705,11.44459811976959,11.354328060820992,21.415582724441443,53.1998361428949,29.95151646673471,-16.032392031822326
0.304,26.765550803638185,-28.638658274994523,14.49358074597666,49.30468743100633,-9.80126849316239,18.63537211708705,20.82654684624323,33.025307492651656,36.79495240759052,65.58158171703941,-14.833536266501948
0.312,17.828207603674894,-27.1088919062147,10.372200081662546,43.25355739217906,-7.4114699137492135,14.33496261983201,14.168817247952221,31.022839921838713,29.914376161248956,89.54725181879121,-24.072141337014177
0.32,13.119198294259254,-1.6746666835657102,6.854499900721956,45.256427382002805,-3.268033507577414,9.957942550733812,6.933273593839844,26.774959497506746,32.62927583699107,72.32080554775295,-33.26155547785211
0.328,5.468866345561961,22.481879389336147,7.474138176268743,50.297970471990375,-2.3884596841750603,7.2503067784543545,3.947233112040279,22.695192820596134,40.778768129289716,47.2429784989946,-29.819322895059155
0.336,-14.946676239097666,31.98145497782476,3.187669429623086,50.80324817822158,0.4726482026189131,1.5642460402456804,0.45118171698944415,6.81633220991172,54.04515315189343,44.11127816356034,-29.02174152030293
0.344,-16.16288702084163,16.359004997587736,-0.15850634619214443,38.196120604958985,6.041333125545646,4.085025573596966,5.951312640951388,-2.4938022957632624,48.87192766307133,37.99167452353941,-36.61751414131231
0.352,4.648028863806641,-15.945883520953275,2.9355592376659025,26.275319284656163,7.194981229579137,10.635872926417342,12.588974229919955,6.019247386788213,19.637398323435274,26.553516507030686,-33.18724718489368
0.36,-0.34186887489824164,-32.65651987643222,-1.271513174629738,23.490207814104473,7.291979015019951,3.343482372751167,4.049428832259939,4.037192837573385,-0.838483333813261,29.87709926375111,-18.988492722812016
0.368,-24.637613119100223,-21.105305388763597,-13.60832778692984,13.209095822916076,10.213869557594462,-5.484732043921467,-1.0988968171161242,-11.168796244076903,-4.624836682836174,28.574316721355437,-11.211945801031332
0.376,-24.143416070961173,0.24210202820910018,-16.01146368298826,2.0219289771105027,8.230446688063207,-0.6166752985946762,9.018142542007858,-11.664222261567113,-9.44824099775514,9.512296040505705,-5.85981837023382
0.384,-16.607954129549157,18.244101300621683,-9.326282876922278,14.206782379376303,2.9161559445190393,-0.414436450719108,7.07273546037826,-6.395226109015636,-11.788312054330405,-4.868322845233479,3.389643980142316
0.392,-27.033743523483256,33.595539025473855,-8.256889890969527,29.072432347543153,4.838704592986178,-10.414506908927663,-8.343377553350336,-15.568389118585186,-10.709694456857344,-13.70259699118884,3.9482012149450036
0.4,-29.600829219067414,44.713751741044334,-10.737296931299092,13.147666287133823,8.862922056708689,-7.853118379653737,-3.759319494476296,-22.279370379966775,-19.58406898766528,-27.90981274571695,-4.284197447690854
0.408,-21.70472129326049,49.26791452570155,-9.629586270506287,-14.480312575842882,6.404109604558548,4.044839796728187,14.634454887721667,-16.52426913755405,-29.357709902785086,-36.016522470874214,-3.0595126688368777
0.416,-26.93496538831662,47.84875998178599,-8.452331160198842,-24.393616979261274,4.113353106184235,3.015824368934655,14.314713479549857,-14.260069778748404,-23.69230242295578,-41.62531026849428,8.904095858500353
0.424,-29.76560393508032,40.72142058386791,-7.947091790109144,-25.246107432398116,4.556898834733471,-3.7457444976027086,3.8214676806553074,-15.27472864448604,-8.048739972572829,-57.69482188673243,18.394271687689233
0.432,-15.94403779812522,31.11507203092615,-5.786430996546109,-27.606701090987336,1.1949329919033032,-2.3157593205854363,3.927242524154027,-10.209793334682615,9.364329769210407,-67.23058085490796,23.43424885661169
0.44,-7.207166997048908,23.81791423032841,-7.0577228701540315,-27.83874337794435,-1.693417746694476,-3.5346971463077823,0.7813120436714451,-4.72034720402854,24.94883631556375,-62.43573043151236,25.700530871165014
0.448,-5.8482136529845015,16.75619163856953,-12.308228344451761,-33.24587732093432,0.06829309294002592,-11.662961122097604,-13.493430393404333,-0.29436317572211934,32.3083066488707,-57.94446369444883,24.08801797765983
0.456,6.6652944892905825,3.3946965931670228,-9.851756718273268,-49.53422798808218,-4.245259468736494,-10.699749677836593,-15.816233383544589,7.590489835882941,29.676362610787063,-42.197292272223486,25.620295939824196
0.464,25.894878980930372,-17.71638572483907,4.907518621652522,-64.6549360550263,-16.049616768628894,2.0572632769697186,-0.5741447275676917,13.398611213342653,15.166091720259164,-8.726713400535772,32.192059664111554
0.472,34.148840414015424,-38.49257132610507,16.994665902269272,-66.96189167214814,-18.8499537816736,8.726978911943702,6.136157783735583,12.352707294002483,-9.551084694172618,6.664985233795888,32.64251858576135
0.48,19.684429869270986,-47.89503731756309,11.281248873889755,-54.285691497427486,-8.165925180706125,-1.4481577726276995,-7.988575070041261,5.640147040267612,-23.648667759441967,-5.865089630978589,28.282204420595683
0.488,-7.658953030942012,-49.33131131834324,-2.9724711718765087,-38.541633057642024,2.3000164091419064,-17.235418570811962,-25.687650971859057,-4.735911365541531,-17.077232731528223,-13.993896147236665,28.883567296647016
0.496,-9.136367633534416,-59.21181037039654,-4.445776956799654,-44.94085166265129,4.542215041097163,-18.97459455897089,-28.06594734045743,-9.90439493930011,-13.41443346051675,-14.290626187313034,26.256607748987463
