time,C3,C4,Cz,FC1,FC2,FC5,FC6,CP1,CP2,CP5,CP6
-0.2,-19.747792525884723,-21.75856135434947,-1.914269516782231,5.3481947502349785,15.35476909527452,-13.146467457250347,-20.56688341124164,-6.400741648140778,49.89559341543174,-48.37938037427076,-4.1064048755632765
-0.192,2.6830254250047747,-38.890387809899565,4.427803284444673,-28.12968743867614,11.104102365657354,-6.957691802207549,-17.515656173856243,1.1082197896997124,35.69641158874779,-42.666902391881514,-5.647978856168989
-0.184,-1.174804738660735,-40.19058042560159,2.9246336589559334,-58.38823244431849,10.220860791354557,-0.599247685380074,-5.268032898048026,-6.948361445169166,13.949078272266041,-28.8588954703846,-7.820746962626472
-0.176,-8.565920727816614,-24.17224651256893,0.7612366837662851,-42.11369795107767,8.458510346511495,1.9887916962358339,3.562732571092587,-14.100750946479168,4.4673252542702775,-23.529415467302282,-5.431797612523877
-0.168,-2.9418384709132694,-5.899595664525455,0.03513521844230573,-12.5735951772872,4.413602669599406,1.8339330622270156,4.585616858086474,-13.426454601839412,4.581003833795778,-23.607557372366124,-2.6231284846908416
-0.16,-2.777521258654527,2.0180462962197128,-0.3144431473032859,-8.487252269479375,3.7009533008572113,1.4956556207617697,3.4178624039408496,-12.909041374130743,12.540414576374829,-17.016754770657744,-7.511914274159608
-0.152,-0.5211286253141424,-4.443358755016035,0.7361745702572868,-14.243298201385594,2.3683386075856365,0.8840393876905989,0.898787085729875,-9.742115685026793,22.774924412988426,-8.734540043661971,-8.147423272020315
-0.144,1.3930892759570037,-15.333747036479494,-1.2204505487010564,-6.476199634223639,-0.9414133237447946,-1.9751846728951301,-1.9204778462801577,-4.513215792419069,20.176163934215314,-2.198243160298124,4.701077911014155
-0.136,-22.05910090384424,-18.495278543160698,-8.535211894054903,3.535976037116329,2.078704237834443,-6.102140011225322,-0.5713100278794235,-10.458580675726589,11.017568147914057,6.620774391047539,14.084254370163832
-0.128,-37.06759186499229,-14.474326040234928,-12.433845646884844,-7.534209030072771,6.982683108501223,-6.706348332379947,1.7838259566697388,-21.644143422899212,8.871401307740175,6.6118526264397985,7.626430006676199
-0.12,-4.489751716684553,-0.3295110200874821,-7.938593929254426,-24.234346103187036,3.6844827355040404,-3.744464709719297,-2.680288494465816,-17.328532075334866,5.331553505994843,-10.507460186532805,-5.1134389348522165
-0.112,18.338432317378473,28.171810002454897,-4.7706262360764216,-10.470662041792277,0.4203160781634995,-5.369393580556706,-12.134774901236765,-7.5032152650717014,1.9458730027553413,-28.567617642716613,-11.317464847347559
-0.104,-16.320756347948905,49.960276595222666,-11.503784901929532,8.525618165732723,6.225033931245253,-13.372566693683178,-16.427665136799007,-16.262305847286672,10.882583769895374,-40.44863270361669,-4.427559830468555
-0.096,-42.832617578711876,44.614210544767175,-17.688858731595108,-19.802657983448146,11.765529263165785,-14.098818811847082,-9.961366147697621,-25.583524495122337,11.880382923303758,-58.07453989534958,6.717284717704051
-0.088,-11.319739056296223,27.295780957253296,-8.372444288246967,-67.11151509342623,8.82214962252233,0.8092315735432046,4.3737251297358455,-8.371744406970654,-10.95535161827858,-74.28155096815546,5.0100305851853815
-0.08,15.85385783407072,18.58333885620411,5.5341566725865015,-79.2412969506304,3.1836659929086926,15.16120498849646,17.940436431216405,8.039940272169229,-24.03945121387841,-70.39894106828982,0.18907082293004795
-0.072,-8.05928015296028,22.250847122873935,3.010255666272097,-71.71247130640745,0.7126475720446589,10.96089235833747,18.883593593436817,-4.642980356805614,-2.5379334691605635,-55.08325041158218,10.977099709992379
-0.064,-28.7311532601191,37.66483617937315,-5.6653660801503065,-60.36209937596069,-0.21002331678734845,-0.8971804085478263,6.807692515125344,-13.634053700035945,30.77627142297771,-51.626498594600456,19.613586309108413
-0.056,-3.439579734012944,46.91233557112335,0.7791775783517091,-24.204137589486443,-2.3645888666686123,1.4745534623632093,2.223550762111402,6.434974064101198,51.16510258366994,-60.401660845763914,9.656007336995232
-0.048,26.776467627105067,28.244744003690514,12.00606728345914,20.950580522307114,-5.120121193256831,12.708698050823358,12.484009779157846,26.511704729551447,53.47721327054373,-56.88514497608709,2.595716445806705
-0.04,23.223767664224702,1.2538828265779918,11.296484466056125,49.15860407203284,-4.780537287783969,10.812646488395975,11.334270911722978,29.304146423009197,41.530759679958294,-25.24546489075738,5.213580465809688
-0.032,8.528459905061043,-12.921107190899935,8.83920752871189,74.69840905256893,-1.01747173148783,0.02322974047922153,-5.8474183491065315,31.01562170706867,23.334828110894357,21.183670323470224,-2.3067925797181332
-0.024,18.102203108806197,-35.26750667473045,14.339972606283716,93.50635660805682,-3.1051353272357964,2.788523106263524,-5.499415116628637,35.39604960260486,-10.664999901075232,71.68161687303319,-12.549451325888155
-0.016,44.383031572258965,-56.193845311732375,15.592286415062961,89.88250472529297,-17.30199802756418,11.867839049996602,8.883923141509609,32.47668424332812,-73.59533824018813,138.933781748057,-7.226814185860051
-0.008,43.37025792907657,-30.878017412901983,4.784970896709223,90.2082148157529,-31.519167786545474,4.716971140635194,3.739680074533109,19.36181127133801,-133.86066368247708,216.36775323816718,0.4161519972990371
0.0,7.395984303870937,12.277960796427761,-4.709667608380753,99.27089984176392,-33.13589285765527,-4.556705560556976,-2.5264187108289966,3.8206096355882972,-158.6407148886802,265.1130020340601,-2.5693746367970793
0.008,-8.651220721881451,17.47647260251066,-1.280652746916951,87.01472874411418,-28.359991047034967,5.1400126146250615,14.911131989175209,0.9539508789586266,-177.83311634756657,261.64791974019926,-7.387032342286492
0.016,10.148186582205769,17.335640928308834,4.244419603054819,77.89537734234963,-21.333228641272804,12.163646790830692,20.026296006358876,5.740431086343369,-216.24592408455888,212.45206443817824,-14.364809310966416
0.024,8.724900043250022,43.79587079270985,-1.347889313332113,101.78385557759091,-4.584319122274901,0.7241835862031064,0.12754409129372477,-4.895899637847213,-240.5424541329909,141.78953923678426,-30.16233207919819
0.032,-15.575057293247747,55.74291857460063,-9.329134148103321,114.2703956480391,13.434302042884083,-2.3640009722669406,0.8218756551059969,-21.240529851338444,-240.17652919251418,87.4302285097835,-43.011287029012024
0.04,-16.9452332769459,61.81858627961723,-10.595902104390875,97.13539627098896,14.842579297716311,9.524847837121756,22.723388928819087,-21.168716828906465,-250.6127790664494,66.80374464527806,-40.78377275716132
0.048,-14.78586705909532,119.85056231849734,-15.555028187875275,100.41132065023145,6.301611207337449,8.095538604523139,23.68058864397047,-24.323129312409932,-272.3384626864479,58.40745206176274,-31.681863716884056
0.056,-38.45279433604366,197.04575830535583,-27.220877232745462,122.9835619548273,3.6840673094344685,-5.104204000353584,11.953029689372814,-43.91348478311419,-278.4843608996591,40.85975120357942,-24.425060216810166
0.064,-54.93377771579636,226.13788481049906,-32.537834237019105,118.91519273984089,3.8987507129472,-6.723081230903129,16.075381179212485,-51.89417579151989,-280.32355750239964,14.504981122306178,-12.302718965806918
0.072,-57.40351153067816,230.28473049978274,-32.14161568558142,106.0200292700278,2.2191221705844013,-4.205961620159382,22.12397828993258,-44.76124800205429,-292.6309989697368,-9.856166288186895,5.881685287396833
0.08,-76.05333142557434,254.47914469438152,-36.659494389965246,122.81343382676776,4.464995580660093,-11.731869644623083,14.291726451923234,-46.47508249125264,-286.33461925226726,-20.274569632199405,11.174094988032676
0.088,-90.40625004869,282.9554471598945,-39.541249331662065,144.87356414800166,8.97482481382892,-16.179013213666405,7.35389444107595,-46.93531801394067,-243.2841182606243,-20.800003044965937,-5.787934214450186
0.096,-73.86858614695156,285.281926413475,-30.955273448415472,139.74738952057083,7.020924093275847,-8.144080545498591,11.29755956326562,-30.732808642084265,-197.92494609534424,-18.48991626378373,-22.659652885615785
0.104,-59.16478737517516,260.27450005367047,-22.71699897121869,124.91105869251419,0.6282511655527807,-2.497074025913582,14.748223916561901,-20.220136638257404,-179.6658080241249,7.029056334147118,-22.850238471727526
0.112,-70.44810292000514,228.184579483376,-29.160735310957595,121.58475134532557,-0.3828054873609216,-8.225165350270284,9.719928604851019,-27.462004753342597,-173.9691764907813,59.40197175692087,-22.987076361638586
0.12,-81.83961274533908,204.70964221590108,-39.736518422567435,119.9287977062009,5.11797837988271,-13.399874596404853,4.5470029169384745,-29.28152283799981,-167.60046730349399,92.39013514103515,-32.90981132291851
0.128,-76.61539629564545,186.23664050549434,-38.87591265852982,113.92125366014218,9.514799792814673,-12.001113198842333,3.435869677974036,-17.814021794527036,-168.88541649628428,84.06927041614152,-35.854581169207904
0.136,-75.0373256404073,178.24688197060638,-36.5745563817115,114.28557815523443,12.437054383544252,-15.374885785275822,-3.692872622456378,-14.441219373459873,-171.22124382166635,61.942634208658326,-30.64578434138496
0.144,-91.35875287866818,193.88392891194886,-45.279727206162526,113.48705521737695,20.79423508844723,-24.315184685206873,-14.271545991276188,-25.24146739799608,-157.73283834518585,35.53052167723417,-36.085867065395476
0.152,-105.48305707300162,207.38434609715696,-49.8007972234453,93.8980232718004,30.08094978885419,-23.591683587087008,-11.73283403151947,-31.158640126507475,-134.3383107369337,4.315675998232819,-48.251451296675576
0.16,-97.3877996803099,189.32421474034518,-38.87469435615185,70.10618096777154,29.69861500610334,-13.72217530467869,-0.7579869987147593,-26.890580150412237,-117.554027982286,-8.891209113772002,-49.58695762105789
0.168,-81.0950917167744,162.32115530216714,-30.612409812786275,60.43604190096318,25.246579078526732,-7.949381248485974,5.470451889364195,-28.255679737915518,-117.80184666481831,-8.042464329385899,-43.87217270646959
0.176,-79.01280031382909,149.50682175187342,-35.57957530936848,49.41547098231197,27.39250331908318,-4.278746412788425,15.270547865817628,-36.60147546469488,-137.97933060668055,-20.668639630433233,-39.135952268079876
0.184,-90.64035877116098,143.2825304868967,-39.39050790122632,38.344741344854526,30.8258046161546,0.6921632209377471,28.229110352784918,-35.92129398631176,-158.2270263596792,-33.0633604682773,-29.665367385540517
0.192,-96.99171131645966,145.939061195008,-33.68958648003781,53.50315417559055,26.99557038102817,-0.5526267448539626,25.92276052654033,-24.68603768355971,-157.04339782676914,-26.647796126948517,-16.752661054976638
0.2,-82.31402533719262,156.69042150228384,-24.771246334817498,70.62491983227972,18.9013761350627,-2.884949647379532,16.858793265298623,-15.79612624588833,-147.1591331814442,-23.44960092339729,-10.908432040859685
0.208,-63.51309166843594,161.30189713446148,-19.03254971907939,48.94927186670834,14.156220130665936,2.730481228220685,20.804951366568808,-15.079867150796254,-141.49932812190818,-31.70195232218722,-14.347591078399123
0.216,-70.86214098552138,171.16038386696462,-21.266429274941537,23.192680119599125,17.029623892555314,3.17031812755638,21.811269123057382,-21.491600239967525,-135.11946053043866,-37.53778140802395,-22.030186115335585
0.224,-88.09578929565987,194.85819974992822,-30.167962949841087,37.53191349093124,22.29181414621057,-9.174557498186939,6.41110535052101,-31.537061626984954,-141.63278762109354,-46.95686726875371,-23.711967073976588
0.232,-84.512598513927,208.31348841763793,-33.827605515048305,63.14306216112354,18.94057894680814,-15.416475266951727,0.018167423936118983,-37.013172141843185,-159.2263791379045,-58.85753614008011,-10.40513351968461
0.24,-78.2937154727195,208.06879253018343,-25.61270122173941,71.02281704364549,10.124909297119386,-7.9560452472139005,12.46918077528917,-33.49897105045623,-143.30382869796404,-60.053387501154596,4.418452804203757
0.248,-82.39186254834105,206.18687389951697,-15.410219219811086,73.97016550254293,9.258032584538856,-2.892821236505634,17.10411406658211,-26.831356467987032,-93.02049845104439,-62.56762839966686,0.06025391202360149
0.256,-71.51076520379371,188.65321235033082,-13.80313668612946,70.94579867934804,13.006352189229235,-4.897223022229172,8.502817579389609,-22.842509151904267,-58.937007493871945,-69.64206304993336,-12.810308589859183
0.264,-47.083295022968926,159.5700299833465,-14.877189692275088,56.91735742078383,8.451509063959028,-3.7516957746797894,6.962645234569129,-17.14868975726421,-42.55345229353963,-62.96391697012509,-10.829362111953873
0.272,-29.056976492431986,138.5072989015579,-8.4412304136031,47.700396368616175,-1.3141302219883748,1.1718609583945803,11.244825633076777,-2.9406386647505127,-22.514791793226024,-48.89589896186099,1.733588444003255
0.28,-14.818902775009503,105.79478600356589,-1.5415813856617635,41.88056864375914,-6.098509747441379,2.31385870005221,7.6823083542091695,12.156526589509465,-28.540188864394942,-24.78277423662034,8.335644315589645
0.288,-10.032196051039307,65.09646810704912,-3.4408810493081488,32.76767982164141,-7.258746316483581,-1.5373682633460704,0.22006197764174376,13.916629613857012,-77.44623450125539,30.02645173372578,8.340317229001142
0.296,-15.902473362093458,67.34161920538178,-3.4412393153637777,32.52752722448228,-9.87119395831113,-3.6328177725083504,-1.9503320889576412,6.9773817199439,-126.87335460112847,69.40291980807928,7.609838040176921
0.304,-11.535718531503683,94.22725777165377,3.738451542169329,28.950050750218697,-9.539972817833469,0.4966613290251832,1.4876857539680532,3.71902155041193,-137.0416270450347,40.50899026973667,3.4177906445617072
0.312,-11.35355402221197,80.2805118845175,3.424318811279417,7.924304951992431,0.880235677212226,2.955850826648057,3.3824484744352405,-0.8357120771907145,-104.4798029909447,-2.0776246925917827,-9.27715718840779
0.32,-32.44592691094691,42.27661058167858,-2.462888429915403,2.7367693095747323,15.102923117435608,-2.871977893968624,-3.525398214178672,-8.982309662991097,-60.802660106704344,-7.712547598124731,-23.10233830562378
0.328,-33.91887782664746,22.05540234478827,1.258601357934793,15.302014446125925,19.324162140269898,-4.850956015379167,-8.131726842604257,-8.41992400452982,-52.52255024681897,-14.442041827522667,-24.317273125408274
0.336,-9.781277643786545,1.3812381094838502,2.8250377901393473,-2.221170460599193,15.941752627752233,2.7981722911350024,1.6590418997514387,-3.919603456547876,-74.74247072686742,-24.152006670880464,-17.98703260743993
0.344,-9.150744734923652,-21.8465130858789,-9.299056586540123,-27.06398216064127,16.29220070482821,1.41010280985921,3.4929873700683003,-9.46970479950256,-83.34092529932383,1.3801932238595254,-18.83475705394271
0.352,-16.938417313510786,-19.72564231854176,-13.359621929539907,-5.972503741964845,14.736018958750648,-10.407568739235458,-13.940198795716467,-12.979719670772614,-80.15904639637591,31.190928927554864,-19.122624123957802
0.36,3.64852679002712,-8.63493323894661,-0.4175172332451965,16.774695010063144,3.5841709019736623,-5.706421370307184,-11.336612467489214,-3.890799935700157,-84.6062104255661,31.783949822394696,-8.274649230639545
0.368,16.36867739562432,-8.23334779168548,6.84020840439483,0.39761363278860773,-5.021445215643578,13.569891158149161,19.927864308541892,-0.006665435572332913,-82.0862819229021,29.492164338967886,-0.18653393910673907
0.376,-1.0356378955667749,4.627320964037976,0.6131061436754826,2.1158382393230624,-1.9842689732949215,14.099442581518023,27.032452064696848,-9.576794008128694,-77.97720214969426,25.572557827049728,-0.5668566861656756
0.384,-15.69822436796839,31.13846514387759,-8.22445184335287,33.93194452307453,3.704860958511019,-4.62470018879214,1.002933784580057,-19.130778337705962,-89.23242519783227,3.894930090239359,2.9453830142962247
0.392,-16.327550645864832,42.593002275257334,-14.024663951426053,26.912825799475854,4.837923073562677,-10.401929237041017,-7.09179599286542,-22.164839538996954,-88.5905407265904,-9.680277935300724,4.355525959935605
0.4,-7.496449943170149,41.96259944212218,-10.669478493604595,-13.763816288300202,2.103357401766282,2.4639131749335985,10.317015702774679,-18.61068918603934,-66.79116569010631,-7.007484727890199,-4.907079969854482
0.408,6.041242660187302,46.358374579072205,-2.3592626646023205,-26.773642422791156,-1.6628712011995828,8.182434886835903,13.664236560971611,-13.80004258682216,-52.684928586315706,-10.621479049379568,-10.285714627762975
0.416,1.0880091056282357,46.37750551991274,-7.426595626961547,-23.565729603287078,-0.4448815790923714,-2.962008589607197,-2.5684284757232168,-22.0494771130545,-36.040430888861074,-12.572702835757882,-9.242784210553674
0.424,-11.941685669410205,32.35818800554363,-17.790671903379646,-33.017118975165864,4.033452632144463,-10.796933964912872,-10.031306899232444,-34.60028183412917,-8.586066207792546,-7.601624326534558,-12.013271413215369
0.432,1.249188255404803,14.762279772247366,-9.158918631163445,-23.27083321158176,1.205350220842679,-4.102975270534837,-2.5788155281397125,-26.365008421261344,-5.330853267312863,-13.02099466667443,-6.719589322470077
0.44,15.795333663430718,2.6413318569812434,5.375464330387687,14.106345374285164,-6.028141184611185,-0.2315830628384053,-0.9582363657887665,-10.144673722040691,-8.709221131066435,-12.38373324709079,8.442368202011277
0.448,2.8689882305093333,-7.780840320860649,3.5851106919252866,27.43402341091511,-5.963648297749055,-6.830991720283796,-9.492309699227102,-10.39524855109088,23.134219984049583,9.461627875565888,9.116041177310631
0.456,-3.6415789715059352,-24.303243676854535,0.11794102525934733,5.710764886579626,-1.8786165863332955,-5.554747850125944,-7.511590219649341,-8.749144631545963,46.38113162102224,19.131937529731186,0.3010718876458632
0.464,13.230699885473717,-49.71229100084941,6.669777464702367,-4.686966185433901,-2.20630537469836,5.363379590174437,4.99214474468581,10.583872337080383,32.32332255808641,11.173973754121787,4.268318385343196
0.472,26.79647496847984,-76.83456742517417,8.191738462510907,4.498178158332132,-4.719511356952135,6.478662070556129,3.9723840763472644,23.568451840675188,41.752390073817594,24.916744074642033,7.542078530456301
0.48,28.97686500477639,-92.58908791676441,3.3943711481688528,6.082686967669409,-6.323506753984221,-0.5942923971879124,-7.509179617755667,19.06020186275812,79.62437757119648,53.73980327912991,-0.2625464467676403
0.488,29.626035909056483,-93.96749281211483,6.772162672973715,10.988347726306941,-8.352257568199285,-0.507392940989507,-7.967979426833001,16.834020560301774,82.84272697584737,60.736380082707704,0.21728871991107018
0.496,35.02554212438964,-94.82322929996303,15.828464042870154,32.424108789448574,-11.351672453748444,4.890249718262318,-1.3626170794390826,25.140328347292098,63.43662132137739,60.072436573043994,7.383493145437897
