time,C3,C4,Cz,FC1,FC2,FC5,FC6,CP1,CP2,CP5,CP6
-0.2,8.220410642020443,109.62871956980166,2.653966574142617,105.9602660997939,-9.846960088627895,-3.686110309193681,-7.78774906749893,24.490491968950746,28.9250846964013,-29.419033692319356,1.349754934117013
-0.192,2.164488840909751,106.90693005161113,-1.2534564249172464,78.98436632487109,-7.569966872374896,-5.876043609899472,-10.13988287202587,11.489209322670682,48.51735412736687,-26.498069794380825,-7.327753709352296
-0.184,-14.856394833800264,97.16229420320704,-10.007388727595849,48.217496560759784,-0.7394885347061346,-16.516246128410888,-24.559300696976113,3.3271854697890957,40.34452871531214,-25.40363378730995,-8.147102956315901
-0.176,-26.33874717375574,79.647684420974,-17.767485096510754,32.02747446506966,4.766913134650239,-17.448861877905802,-21.780866715486148,1.8784235426157214,22.693635799784655,-24.885195688873104,-4.464953714683308
-0.168,-35.93060010602815,68.21248605889741,-21.741076746779722,35.985258410565535,9.290894353308182,-18.106122118951195,-18.41962284829868,-9.509007017824338,18.036945852499894,-27.541857644109676,-5.046039861855229
-0.16,-23.475825224833592,55.01776069075745,-14.50688828815306,34.007494503560494,10.207682429741443,-15.46040971314269,-18.73506708413549,-14.78078715536831,16.71169482597582,-33.19024422739369,-13.179377596316122
-0.152,29.109794375505633,26.478875004553906,8.040219466121432,19.775191062890293,-0.09574585380634662,6.61526592487414,1.471292568998462,8.860789271985052,8.124183496944397,-34.121435360985494,-16.915894058353185
-0.144,41.93416232266357,8.958194685225656,15.331621548459216,12.858096785323763,-6.554881517760135,17.89903659185221,17.094495990853243,23.034616931795636,9.506467525226865,-25.024383482189783,-7.8337701046200285
-0.136,-10.09239400765917,17.44023526253524,-9.29360502648931,8.405183990636207,5.056667012452535,-1.300268761417543,1.5300975444735927,2.0018820138935998,22.082067054591814,-15.210127523194588,-5.638241809032942
-0.128,-19.119838690216806,13.403415846729347,-23.150349844887536,-7.448788184766893,14.340357874134607,-5.504511832582189,-1.5236949089111254,-10.796047618887922,22.17494436299931,-13.482660831891867,-22.58295032074458
-0.12,3.0815896934946556,-14.623708589894873,-8.008556672274887,-19.116942969505104,12.000844130622914,14.480912289303012,23.745906320362426,-5.615907059090712,15.657362429469224,-9.97321356073491,-31.34094988456322
-0.112,-37.90478145151279,-31.7687728355678,-0.19828932120798978,-11.282043751459426,14.321867673644824,13.933841192426728,30.118931131506695,-14.56283354853196,21.87266476405566,2.150012254547486,-14.05033477136581
-0.104,-52.268366699604854,-39.999397064128395,-0.11640654260131766,-1.1643371254531159,11.746413554580556,3.8039837990321743,17.91808589284988,-17.23534664748043,21.554632736627624,7.427310340261934,6.397468126530316
-0.096,28.06826529514226,-55.18768521898622,13.161522631631906,-8.794405525155572,-5.481497173184834,13.540452911351629,17.44024855485238,2.51793623262631,-2.5938469949134215,-2.390968648989299,10.421906681824147
-0.088,56.85418509887225,-50.67263257410813,14.618835808484679,-26.70334307675989,-9.685970923829576,15.471406135828827,14.385025536644232,3.288296565627944,-21.50234683417866,-7.339640002687215,3.9173584987262977
-0.08,-1.197860131155371,-26.781147972791477,-6.113178449548464,-44.98427121284114,2.8673602401381575,1.6872660426537351,5.51471145648005,-16.297637602463148,-11.466621426358438,6.847083497720732,-3.271562207736826
-0.072,-11.870492099690814,-27.22798010628437,-15.377652732518012,-67.604106566881,4.003098741034832,-0.47950402976860396,5.333445659836901,-17.29222873111153,4.064585128072779,22.306347105564146,-6.210530886670964
-0.064,6.91219529026516,-44.942787255808184,-7.863710170947344,-71.89956676907015,1.2807060305494935,-2.0697075647162992,-3.903440100892488,-9.164066058216637,-5.05261961744049,20.623132560897037,-3.1483653767893953
-0.056,-27.620518697478857,-40.32181831452462,-0.40264764469379516,-22.655899405612132,9.617641279076269,-11.817522021723121,-16.60146244032687,-10.68009376992416,-30.83305455468211,14.292337448492638,5.169734859102384
-0.048,-43.66848111502679,-24.61414876267364,9.85866234313465,37.46711004464012,7.901921803860326,-6.651455685832465,-5.3540825900320375,-7.030780476850202,-41.3471454319343,21.648990217992367,12.9780839803638
-0.04,8.454452259014607,-25.219789293839412,19.065352079458307,27.016068769907413,-7.945000121096844,5.042166082164635,3.268817986307796,4.832576471922839,-29.607264547302076,34.4355929086623,9.63234489309651
-0.032,53.05396525915095,-36.333805699324834,19.24961581933787,-28.51829703860146,-15.653572792631083,5.778880917998737,-6.787936727131138,16.37129106288823,-23.097401331482043,34.847714877248585,2.4667029161645915
-0.024,47.1545670200061,-44.85771798479547,17.99007801023483,-40.852941019478195,-14.234980215474916,7.220287630228213,-2.6202590195712303,22.444576650749138,-34.36014425363615,24.480244156526464,13.304471954879851
-0.016,15.493901257260402,-44.705958655126594,11.59173138508044,-18.19202575906129,-10.801612920160517,3.6851461431890535,3.3865246289424,11.184685433487678,-42.68302503865451,18.801870462855057,31.435654551218327
-0.008,-4.62542912796024,-37.98713138241889,-0.41087293147096465,-23.755536648905135,-6.926340278376418,-7.39399542309218,-7.766874646104422,-4.358978370695159,-35.65377506551092,26.73230956987532,30.173687045485682
0.0,8.467752004417623,-37.61211408401996,4.649958954510286,-47.7315019644677,-11.866350965764806,3.1521134157330173,4.772656445282474,1.6017531174418063,-22.068906419235248,39.88751884441556,21.910658816890887
0.008,18.93925566828452,-38.418000147908145,17.381555933828942,-39.830155487757196,-17.9128228233234,18.074009908034682,25.676732228407488,8.876258865282336,-10.548858678413945,40.64125773974118,23.438944552787547
0.016,3.2895330235559945,-25.66765990329741,5.518776522968166,-2.2979509113866166,-9.220639493713923,-4.8080890880195915,-7.268564074371553,-2.6750666624445896,-8.162156411485524,29.511592840763182,19.520931934633055
0.024,10.146201474378453,-20.728386385627225,-11.354824949546357,5.3997819572678125,-3.2084737109851953,-27.28241625127653,-43.85323851311513,-7.764425627109148,-16.512981322678872,27.00579205812101,9.843957969506432
0.032,37.04403664311472,-41.286673983589004,-4.093148636830786,-43.869402774611224,-11.944328946681626,-7.246878909725225,-16.038630328524995,-1.599738449246363,-26.619582995928738,36.7192922157613,11.379857906796904
0.04,29.554789823017646,-48.17015570954442,4.204170264053628,-73.77436691940146,-14.935641166803576,7.3684037395627335,8.681483975400766,-4.854164161251253,-34.44518826794068,44.05916797872209,15.901849873408091
0.048,11.345088403449488,-12.497757297669125,-3.6574137975962984,-31.624153680742342,-12.150879628175653,-13.712754253566018,-22.253997597201675,-12.614217350708735,-34.290987729579875,51.19813960560916,12.706531108402746
0.056,4.48111116145131,26.12557826293664,-12.489241660996283,-12.52034223738844,-15.559099142153753,-27.845863086864263,-41.91626945428447,-24.605541903994418,-14.777802188168591,64.58952879926814,7.883732340742288
0.064,-25.363519552968054,24.926096363783813,-19.440746287949818,-62.782631464537445,-10.96531729046369,-23.713490780284367,-27.547546141200833,-45.47302855199403,7.149358673507449,71.35818887721072,2.487658427281144
0.072,-42.3235856909868,-5.67607575688105,-23.57432991966859,-61.424903520103214,-1.024138515765872,-30.519606599495926,-36.213486136755584,-47.232145115955056,10.595592110691548,70.35406033991266,1.0070130042639212
0.08,-7.109294883384717,-37.47809254571998,-15.569404211467837,14.185367384277916,-5.574543426872417,-39.50697444286271,-59.00237251071488,-26.768243739769527,20.13015680164938,77.58199512084475,6.095817189161264
0.088,16.985891020787502,-60.61555423252716,-6.818176505408459,36.18960556817411,-9.290401481246644,-28.84622282594348,-46.92551143835498,-19.60658406829051,43.307718183566756,85.03293169888168,-1.213799754524122
0.096,15.146411938369347,-69.6327754704,-7.594175363826549,5.1470907118278015,-3.12977279643723,-14.47470427240632,-24.26237636021967,-18.487850615393285,44.705691755158,79.14188470148154,-16.301129657800846
0.104,33.15342060411581,-56.903109640912476,-6.37099411251447,11.471238023308963,-12.02903806472914,-14.971302451892381,-27.894497032250616,-3.925135491678521,48.76324473644622,77.7843009207521,-5.04464126286321
0.112,31.106385418459777,-42.97010668016575,-1.1952399168437486,35.22277542900639,-26.251312352272386,-20.273873790797857,-34.11198807667782,-0.07247867482537694,102.1296609886881,90.43897065470553,18.157374376717694
0.12,-3.85392225440199,-68.56476507336271,5.246830377788257,49.799242022345695,-16.485763972132485,-16.5882654301056,-24.596124907150784,-5.249321600016757,139.2908976386396,98.11670367451855,11.51856576311573
0.128,10.139256922177921,-125.71728951256753,18.71082774603748,73.16708488014953,-2.783475140262226,-5.0551408071493125,-15.377943798774808,6.779017298991511,93.90574876432726,97.29503817220872,-10.12689024589715
0.136,59.08585895630522,-161.60660087825707,26.771953932336217,66.4808693715279,-5.569137342287029,5.534286990252414,-8.08469443211365,13.858374026611317,40.91634699063229,91.71582526642003,-15.453678230180282
0.144,64.37791113410952,-164.83692901247207,17.48926880828664,36.59399496335649,-4.368303785154252,6.741551947482805,-2.307617304666031,3.5185157264735634,46.871341948043764,66.72242578645319,-12.05202340941827
0.152,53.336247336668194,-156.57046849212549,7.379899612933481,53.44246221016687,3.2640313097185834,-0.9076808531300345,-10.35374184476138,7.601130900912838,61.66474402223201,31.236202424182245,-7.217213075583497
0.16,60.62462262199166,-125.82359374473,3.2906390632279674,55.22436714258405,-0.5731372034886953,-3.225821329240749,-14.326056583369713,17.482273698451817,49.61571382439392,15.199924793104072,0.7008571155375236
0.168,51.54318048874373,-72.08033618265594,-4.501370666327495,-21.121246517134658,-6.929850604741543,5.416178985404594,4.191098620891864,5.596139626205522,25.46587492601475,10.973187271569767,2.753925198016462
0.176,25.50593117388058,-37.55642858839231,-11.324747188814555,-38.50945947919443,-2.3933770764308284,4.0544837297180285,8.264911868726065,-7.038372341206505,-16.997962250480644,7.045995909546611,2.0990222234490474
0.184,4.29882704428152,-38.755528924509484,-16.15262508899639,52.278957787951256,7.159723267002107,-16.452314386518967,-20.780893982063848,-11.107886548909372,-66.73025243628953,30.55521682547154,-0.3151970948535303
0.192,-8.35083760135869,-59.501661234297714,-20.96436843450113,76.67843168776824,16.22255803679732,-24.748917640683427,-33.60076572469826,-23.60122190521004,-90.69334318676833,77.89681664865664,-24.4118533865373
0.2,7.368808569386669,-88.43262739543201,-8.829444520158344,19.332351426288056,19.897580550785698,-5.894741152294264,-13.490571715279867,-26.548793904759677,-102.01136170827918,101.59478451747479,-57.25562724640946
0.208,28.707319133332128,-89.49541241052275,9.741797843668543,39.72730704091952,15.547350147271025,5.111408222023877,-4.726452380691579,-15.076170227429005,-118.0137988476304,97.7487890894691,-60.62602381628258
0.216,-0.21932724617877722,-33.465365064448974,-5.3327342502365305,92.10317133394555,13.909119797603006,-9.128872891669126,-14.333021539763218,-28.601834117947295,-123.14462994465008,93.266762139236,-45.465285820554826
0.224,-36.706530421133124,30.042996864394972,-38.44499153609353,55.7602059100809,15.67605557562698,-20.754400230761412,-13.844641974594232,-60.67803355911968,-128.64316369507418,80.2424071862522,-37.7727765973924
0.232,-18.155354855545546,51.62492667252628,-40.25135149258142,28.603960569341982,6.778216210861056,-17.47172544970895,-7.954556621748277,-63.49286659543133,-148.6400403090542,56.7208169453165,-22.547864898411834
0.24,2.150863458494205,58.86132674040633,-21.705501326223438,80.67704173828007,-6.317725584855045,-14.139443772491287,-8.206354877500825,-42.131347935849426,-152.7131723858098,50.768481017648995,1.5845483106168772
0.248,-18.604904238716813,74.43238936203998,-20.72198515070442,102.38182960563806,-6.179173369719987,-16.58838380770833,-9.938745459869349,-32.592318941554076,-130.49884169471144,60.42352812325093,5.518898055334561
0.256,-33.268374913764774,85.00685552385,-32.48946025945318,84.53785893925458,1.6905291340949817,-24.819600218710043,-21.582250431600414,-37.575385333534484,-102.08840396650236,60.9528089165712,-11.229014750543374
0.264,-29.180516369145266,91.49979498011923,-38.582676554346826,99.02283587315462,6.672775873436996,-33.52732651019046,-37.34434828521698,-44.37755233094671,-61.404655519918194,54.49056302693034,-30.45875718529779
0.272,-34.126493896827036,81.836102309837,-39.51661859201507,81.21680607182076,12.921175296008325,-27.602503728200485,-28.666772631974425,-47.50887391000795,-13.852863733672748,47.18359896119115,-48.31389582561043
0.28,-34.379272528467,35.5069863142787,-38.666067731237746,17.65348199736578,20.983796201060876,-15.706726594013244,-12.052839487018941,-42.119390767095474,5.5797831694667135,33.13095312733636,-55.66023710010459
0.288,-17.70359522566378,-10.917992044619204,-37.42807010602313,41.61096947948099,24.753053163432607,-22.312626810460355,-26.258317028537487,-30.109985546871517,-0.7400140488701288,20.86403780551183,-47.38342011847787
0.296,-9.801122914155746,-15.213436867397533,-40.136011313159386,130.2701963910488,26.950393803012357,-37.23048969911998,-50.18595313727167,-22.951519310406717,-5.244044411727163,19.942954484203835,-43.829340333171324
0.304,-26.423319162184523,4.121778590991499,-47.74124073707892,132.78582141892323,32.474348707284435,-39.01126914163986,-49.54444040581888,-27.150441100812547,-4.023237625752623,22.964446186776208,-54.41713516073492
0.312,-52.35269900082762,22.78516590258325,-52.44058601481637,85.8104803905016,35.868307319654406,-35.30033332843765,-39.92752946219778,-32.14315503554146,5.004303848194072,27.918521808869155,-60.41683133457634
0.32,-59.06396170964095,32.38441352982991,-44.49690080664168,96.8515299730552,30.279162022133733,-32.70907276290611,-36.529372249500554,-23.192664328115367,21.812030189188444,39.161804200120464,-52.44238100150732
0.328,-41.11577655596948,15.3436951015784,-30.617673804206003,115.1948444608357,21.037141087368244,-26.098253746706657,-30.804248774452162,-10.67877986310131,26.547327434124234,50.31775657128899,-40.88177168876951
0.336,-31.07321825269333,-17.3602029609156,-28.742370065404973,87.40045319267011,18.541435484718434,-21.096271542217437,-22.631521943792624,-15.307855957001415,10.995878193771842,54.058689373443265,-32.33633307332174
0.344,-40.785579812393294,-29.254634745814897,-36.67305816732831,65.68068166621605,21.078578664104068,-19.669442642043993,-13.779121757583091,-26.092705512971964,-15.450585988629184,52.07300541865194,-24.382419929760527
0.352,-42.43459020921113,-19.328884849409594,-38.73318048207686,68.96122182463134,19.45551294443278,-17.485304961244598,-7.936726846378907,-23.417466908655708,-40.314857535399426,51.9682833107359,-17.297269421484707
0.36,-34.477085064104074,-6.5667563239753255,-34.66634733825638,61.500676029944565,13.891610502884204,-18.956892035018868,-14.20814310056572,-16.87542970360646,-41.69443796264991,59.41280380053238,-15.343916416129677
0.368,-36.72994538393222,7.9847260577629084,-28.853040661546444,41.19691414063739,9.483315732513018,-19.51089323628904,-18.10850183795098,-15.40533094429842,-23.05493300659617,63.5003369243408,-14.996344126959134
0.376,-40.929106769864156,25.124053719125765,-21.29815540025081,34.24840158022398,6.034411326129334,-12.784219264963326,-7.615374805442812,-12.609060451631692,-20.74076185909302,50.09190976314336,-7.576043417919515
0.384,-38.25905551274916,39.20222168496786,-19.18091093568374,43.44486551099874,3.464506276983546,-12.163468548420006,-5.558587778113916,-13.516329995085075,-30.99835886991503,30.62380233122188,2.3743774048896413
0.392,-31.95530577750924,42.51654560019048,-21.336846066549096,36.2828560717649,1.859497091049168,-17.38469575813304,-14.311180883221562,-19.748751737329002,-19.980086735482743,21.726598217897404,3.618377674015394
0.4,-15.007709978867064,30.673058962983802,-15.24009485183973,6.004904361484995,-1.8260204461309892,-12.095201275510107,-11.41566189898795,-17.37249759363414,4.079180097864366,18.04624970196973,-0.46393656192395105
0.408,-0.23688983689231913,17.745840874658118,-6.39035884706646,0.4745326870830363,-5.929861640581631,-6.371380982562848,-7.051006808808792,-9.227704862222414,20.47066104781754,12.594267233627715,2.5218294577659006
0.416,-8.157320856736659,15.489265360660244,-5.730284066852649,21.14948269202598,-7.1896987954417835,-10.45864458606893,-10.686838579316088,-6.843061140004147,28.79488978858199,6.6062791965664545,16.505222172799535
0.424,-11.007872212716917,14.97474545523744,-4.137479658950787,18.578256616754604,-9.232246625365033,-9.610192128548853,-8.064524664888244,-2.717773126664725,23.79229438226203,-0.37427496404199695,28.469936986375238
0.432,10.705668092421583,17.276427892306476,4.504955641789043,10.547705061268312,-12.454374183555272,-3.9335297108307063,-7.1026778699991695,6.1555240411124865,18.687595047846315,-1.2823943839152507,19.85636116158224
0.44,19.229705164346313,23.398796469954675,16.139579248208104,9.957191442126987,-13.78403673778752,1.7929565831849243,-5.773601858839851,11.981928009942044,38.57684849889878,7.565030140302508,3.5864098607024704
0.448,8.949998124135154,12.284330978781005,32.43530704591648,-45.95441676970608,-18.68134247957814,19.14287866401162,19.47496909658098,20.29739152660037,60.27552356846633,5.589828026561637,13.956372325756881
0.456,22.229629672743815,-9.274463584780072,45.011438684113905,-126.68862409503478,-27.313195211791243,32.709650576448,36.736845299467554,32.23698433786573,58.010026839092504,-21.061783584123134,39.4479775264506
0.464,52.33765817213514,-13.691055206333164,43.181792821920006,-131.25266132328258,-27.466782948692792,23.14553540119135,14.901857378513373,35.78136816320409,55.968352914295544,-54.428404436475304,40.13920328441067
0.472,62.98458255839441,-19.034320682143406,43.99344159284089,-101.76342577601606,-20.49271775897424,20.52379309830826,6.960400537444642,37.07083670811124,61.73671774347013,-76.25952819766287,26.99813750337057
0.48,64.26170613681103,-42.0794885839419,57.63119912899998,-114.57064573010682,-19.947521523263426,38.67676147365677,33.63764932892961,46.76596943320698,57.65598372564425,-88.3573812630892,31.565897869850247
0.488,72.65686762179959,-51.778854990030865,60.64560382763113,-128.85336780954734,-23.21934875328651,43.63614972174758,41.14361139870271,50.85002476984205,54.647389724570424,-101.16087859300652,42.74582604274984
0.496,73.12016552405608,-44.14650396607846,47.47501544885364,-136.09597345019316,-20.78298306684586,35.49575871091278,32.7379542680874,41.903656865598734,54.2363425991249,-122.86411959659252,47.017692228328755
