time,C3,C4,Cz,FC1,FC2,FC5,FC6,CP1,CP2,CP5,CP6
-0.2,-9.563908199469694,138.8557560957039,-2.0822911225073413,-85.26127317650669,26.365162621387267,-10.30485330167435,-19.978125038979798,-49.96301814955478,-147.97787052772003,-203.73438878873807,-17.68603283842454
-0.192,-34.28037655015239,142.2783203881429,-5.742386587889549,-23.408844301061727,25.429786115740217,-16.531801144755224,-23.325601854108825,-40.515507953865686,-146.317909099629,-164.7946588578761,-8.115573559419126
-0.184,-17.009951882558354,142.9153880993712,-2.795381511485051,9.37598053897678,11.735095699919793,-13.292497327357564,-18.218936263372623,-28.432118495883817,-133.2604254039684,-134.2742441644825,5.123013101099922
-0.176,-2.9472738861178502,143.08663552321153,4.33804455081517,42.626284028064426,0.8049848428353089,-8.21253567980256,-11.19546924678166,-22.045365620247143,-97.93327134734814,-115.93342830556483,11.517600288180168
-0.168,-43.85880814407525,160.00956355022853,-5.590681896224734,84.53220450081034,8.900970959573836,-18.658096406644834,-19.341933224142256,-30.464742203313524,-56.078836779066854,-96.76882251740122,1.944432386632321
-0.16,-59.37839042185,167.78930636591056,-19.088422770857576,67.08040337049975,15.930550240415837,-26.25603698016808,-27.572867445946354,-39.76012199947004,-51.199757503383665,-91.21416749826565,-9.805034884503643
-0.152,3.3569274396697364,145.21470092201506,-8.825654848922824,17.950509840821066,3.4924566946483595,-9.752213477788255,-13.020114190848691,-24.930420198787814,-76.9310153210261,-111.19673745635981,-3.75017994305911
-0.144,39.1175008164349,111.78254816324855,5.890136072848319,5.55122954709375,-6.876471753578137,10.719422853948943,12.81843769360462,-3.2975626394868933,-76.7727792267916,-114.04853338134345,8.64548543351191
-0.136,0.4869171472409402,77.66460114332716,3.2738024237531076,7.336653881962937,0.3085240186115817,11.009695123759604,20.13353264377632,-3.71381780256276,-45.082083431289426,-80.05464835420132,8.51478966104638
-0.128,-16.85725135049554,41.66358538100816,2.4318850864861457,14.79053147911938,5.833822837197355,0.1162473111182272,3.296045393387891,-8.543709173411031,-25.168014082888433,-48.23994001201908,3.3833439312095295
-0.12,4.955932391589541,21.025688487220762,7.3574859805867705,44.00147993597034,2.0223466993900785,-5.527834419603293,-11.936001426297604,-1.9972723488323847,-21.60221620763502,-26.387056251651412,-0.5768705402108263
-0.112,-4.954929192989276,17.621029809078287,-1.9464278814856437,45.68961274700891,2.8779392829156603,-6.709888596643514,-9.731818159772441,-3.824718913250636,-15.334595793139838,6.43989613391875,-7.443680072440521
-0.104,-25.056063732036023,4.087319247671501,-12.631938199380434,14.280539063333393,4.828004283158899,-8.002403553601846,-5.585870257974435,-9.48191095640109,-14.030831680687522,37.32491915382518,-7.284049289386409
-0.096,-2.486147232083065,-26.720364372123594,-1.6576526823244093,14.939692770521857,-3.0473217953045277,-2.588244493214058,-3.567963848785417,6.537084600822606,-18.563758099377075,58.98309605969548,0.39430727198865895
-0.088,24.295470514507638,-50.98070265625351,14.140062907866051,33.000230091883196,-10.405630264011723,11.750991935505597,10.366375112858792,28.137081520656178,-9.926948704173853,84.197585742744,-4.142671971898699
-0.08,18.120028018361705,-54.52284284135127,11.248253345563219,24.67281216304482,-7.580362763547695,15.599082468344376,17.21191526058363,26.318544691160497,8.354180542423766,99.32959064469297,-17.234253494904536
-0.072,3.717052351604092,-48.020295982410246,-2.7785308776416175,16.821088826661068,-2.21470428036704,-0.05332607967192607,-3.0405531107187387,12.060704766769923,19.029656125821113,96.73617929184074,-20.202111391389323
-0.064,-6.323692864436597,-47.323008614213514,-10.982795960811977,9.337859352487007,-0.43388154707406146,-8.7918232345362,-13.3940890305516,5.576707040591394,26.796550048714753,97.69674169628428,-17.035788573086453
-0.056,-11.074370586166415,-57.48561260340351,-7.351178020331239,-23.046319936133152,-3.642840177407149,4.93305746320308,10.772546680104046,7.349133742002648,43.69679256837284,98.11790278021103,-10.303859455599051
-0.048,9.72573271849986,-76.04048850453616,5.8539006863764484,-39.09493439391368,-13.850710198240405,20.032310354268226,31.787853822302512,17.83165292010002,65.75808525156533,82.34456802648567,7.477932659555787
-0.04,42.181522057171414,-98.67543816822187,16.754500564592885,-16.071959917886783,-22.827913814460562,20.57217066307573,25.76476791268839,34.521556628701305,81.70993786850819,70.45131917880362,23.19731732600127
-0.032,39.980837229631334,-118.77880762971945,11.566859535578654,-1.7465798512495962,-19.038673856758734,10.123370674742931,8.997873154289968,38.171330417591875,91.02082448160922,78.81446214769343,22.949446213682634
-0.024,9.229687306050167,-137.74068757264277,-2.8264661315763613,-21.636171492315093,-8.120730870075802,-1.0204274190205926,-1.549875555646378,22.229900616044354,107.40625173674425,91.2067142956076,15.535055479248776
-0.016,-0.4708444600004622,-167.29872698018804,-5.090401666466645,-63.35544577670803,-3.2044256796515604,3.623280313351548,7.6840258730696185,12.2657940178296,138.25346738451051,94.66296630144133,7.711507599950011
-0.008,16.849612075184943,-203.607544811948,3.8695834220675387,-97.2274009741255,-4.393563338222997,17.29593600010395,23.199197920161147,23.70707759595951,169.12431300105567,93.6479318252634,2.3289498174832963
0.0,22.244788436484626,-226.79992243912608,2.6656955813711054,-81.13818231835862,-2.892413957093808,9.926416953060075,9.4266471870999,32.26371789683764,185.03025419879964,96.69275230939608,4.856924844731635
0.008,4.281823266514816,-236.6044735454675,-8.631945110727228,-35.93916351841907,4.827377594052881,-7.345463693549583,-11.891236013465527,19.955334876176227,190.35336830599337,104.54282250113842,3.4387175295573718
0.016,-2.2804313872187882,-250.15424007523268,-9.337332307237485,-25.958369387813953,10.788081905818867,0.2320571946804544,2.7163533842929897,12.428106103123463,194.78763735423794,108.23038919454784,-8.796702074598123
0.024,23.606947619543607,-270.11537440795513,2.107568614874807,-38.14979033837837,4.38917149236324,15.060665756373576,19.299978849013222,29.7191698673083,200.85818227414455,111.77957361241667,-8.212458937471117
0.032,47.299543556605514,-284.2866424155483,8.806303810695805,-34.51152044973014,-7.91328682577941,8.83745780806956,3.655058422129134,44.39298204757732,209.9620274245531,126.23858593308849,10.153240584484747
0.04,33.68552309317609,-278.8857558137685,5.645484268109228,-41.72398166726141,-9.735476439925185,1.8023963755318133,-3.566071766884684,34.54644215383677,220.5523856072625,132.4248596894986,18.03070115679859
0.048,12.471153660113485,-248.37601818905222,2.043066147235939,-61.917672488656365,-5.645116833426997,8.253346065057398,11.941837287648248,25.904739913038867,222.41778689810184,113.44921822092597,14.132395540342568
0.056,20.947080522209905,-208.52966048758904,4.707330612315654,-53.64735825084869,-11.428176243962275,10.78099011746814,13.855319239916708,36.11430801192893,212.95848868731395,98.62883382718087,18.909333212305405
0.064,30.448085289006475,-179.83345243751455,8.957068759459519,-35.009245709593394,-19.817920338869104,7.378872075895265,5.658206933315887,40.01771756322721,211.01064829153196,107.40486991437301,22.491309216856717
0.072,17.907921918224417,-161.99258329236184,8.742371337537767,-40.12966306403397,-18.15396343344697,7.306423652058676,6.600465023361397,29.384543486899542,226.84908735362373,116.00265064657461,10.168257129504722
0.08,24.69479228742211,-154.6466363586228,10.165758251044705,-41.33165973857454,-18.3228087339061,7.555975915806209,3.40653687373705,33.293855157869466,236.8354755684746,117.4827957021376,1.1076213114656615
0.088,56.455874316631046,-170.5428214346578,16.89114328969439,-31.110749521820807,-28.955091915632604,9.564814432421525,0.31030547253583896,52.08412701145453,225.98946960810133,129.5747233990409,13.614423397000252
0.096,54.907342167798,-201.87225119847508,16.09756779763675,-50.26576709916466,-33.89215850636487,15.26021001948328,13.712358287250838,52.87687138197451,218.3361168240107,147.95679123555274,31.216933916620423
0.104,25.52790227841288,-221.31909049692916,6.397118925235062,-86.82428115776274,-26.719089955786323,14.254094383852982,20.044065543616234,39.055863642686454,224.21659086560743,158.4023564410029,31.253741032947534
0.112,29.344122888795802,-225.24794267244073,6.731131293515741,-90.33725375224148,-23.07247238256718,6.3427461128911,2.7038955436896357,41.167965868941984,219.43307090362086,159.12303437305454,22.548237537801317
0.12,48.9743985943492,-228.937000779827,14.56344491202814,-71.19597479099978,-25.46174868478801,3.0581517839137367,-9.328791836098116,51.543987343004446,207.825231749845,148.88766691053362,25.412724675858655
0.128,33.05271609949232,-233.58733767767077,7.3698723151546295,-69.95069676966476,-19.884723005268526,2.5810650755462627,-3.744108891865656,44.40487746335636,225.69437844104417,133.16443915747988,28.02398994201122
0.136,10.788354978151398,-238.20418968954283,-7.205011437281194,-88.37841426925448,-8.4127881930648,-0.3325969946050182,-2.033297811725904,31.436059133402054,268.15546783316074,123.18938665975647,12.50451342035816
0.144,21.792957955042194,-253.37161885285937,-4.3580356246739544,-113.85821134644961,-5.334475479481905,0.8486882698843957,-5.818620874895969,34.33145356500815,285.59042786369855,111.57596760976307,2.3130477366594517
0.152,37.90545722858503,-274.04342554357675,8.492676397794982,-134.1416868239593,-7.781869439934587,6.983203333879594,-1.4394034959805224,41.95866810823988,256.1455362681423,84.94037591963095,17.24379130313215
0.16,36.98823308884092,-279.60193007100366,12.28824404352993,-131.61378221681517,-4.404791714148369,10.75755552892082,6.4296973675467175,40.33083283701047,209.02891899212307,49.93025447344125,31.72233147066822
0.168,37.868840492373494,-276.06980742178825,13.110156283405717,-122.78023616242581,0.32548148628175244,13.180120872810184,11.001364873482668,38.569625792053166,178.33732718025433,20.993636235456524,34.03013648074707
0.176,42.016303692102525,-286.3791886356938,16.083460494273478,-135.5758846022591,-0.15936467612902927,14.34725723832317,12.483286975968237,37.16372089298054,168.01746882859192,4.9966115014766705,42.92942330504702
0.184,35.81878770738727,-299.316868511999,9.550219125658156,-142.47031465987374,2.366364181303955,7.21231333202678,5.277486401508298,23.48620498390632,167.8169464903488,0.46503346603150353,47.63143449370076
0.192,29.262385171381034,-291.24851612742725,-1.0872007788223446,-124.51605778752293,10.080568378734213,-0.040958837882194746,-3.15056226198622,10.18601689219988,171.12050694538803,-2.2287506644217014,31.82931124944627
0.2,34.41326395632003,-276.1492912954759,1.6438898440761687,-131.03193794335,9.816583723208677,7.505262749346093,6.227133168156336,18.450332621120868,161.5200681094421,-7.49456309516058,25.891831014504398
0.208,40.69635268359998,-268.2629591406582,7.431491388143748,-170.80672503906933,-0.3616222523532126,16.158076378140063,18.885823363835936,32.19695259574036,132.84230351063192,-6.077535339212673,47.54211222176451
0.216,40.16753968572996,-250.7610542380778,1.3493485410299766,-182.18491579007113,-7.879716146063604,7.420700016058068,7.360749732019227,31.556450783289595,128.2683551996358,4.799836792421141,61.56243828269398
0.224,46.324809038649846,-231.83603034749467,2.639525820163974,-161.89373991562854,-10.6146422409429,0.7924425333363261,-7.373903127539279,35.74708569161596,175.4225093275427,10.168168294154425,51.04068118046521
0.232,64.65612483695064,-239.93553191738712,23.95242875581516,-153.62427157138885,-14.083794687048886,14.980706457883679,4.429179673612078,54.696542668498736,211.27664120583393,1.1283697737525857,43.150958571552394
0.24,70.15406345195797,-255.11649240963445,37.54798873662509,-143.53109889895237,-14.79920246885016,25.092071515183395,17.761699710843953,59.238170129043326,180.72326969644925,-6.052935738166547,49.606043731619344
0.248,51.721608342237616,-256.31235322550344,28.341346748709928,-117.51772869865069,-9.837687693469299,13.146794491971631,6.06661218960029,42.15702589295595,134.71623672010404,7.796558524967328,53.97177409137795
0.256,44.74235883953611,-276.50668099979697,22.359692482123243,-109.54231354871989,-6.738915047102152,4.767100497152103,-5.565693678862309,36.412986843941844,126.9733775285482,37.55184441813429,48.96005708034637
0.264,66.76531656871289,-312.35113160171056,32.97593489127545,-117.07722467715186,-12.104621309125791,15.333173991448735,3.6817723064673564,51.82689381574893,126.00992357868391,72.05248672761061,43.601603068461735
0.272,80.18459110549486,-305.9495564608335,38.267640413382274,-117.56865808534315,-22.197824135621584,23.78738428088812,14.64024876075292,59.592177669522464,96.75226771425048,111.35388075054816,44.63291874918696
0.28,66.63504807231345,-262.34151694506653,25.468495977370146,-134.7317298178152,-26.988090815736623,18.4837606763494,13.500540906479904,43.34944856114268,52.48361289125292,137.85392640935066,46.63757517610628
0.288,53.13336676159537,-232.04574424967134,10.308211222131414,-159.70744055533424,-21.919437229678213,10.773321043920197,8.226759374230074,20.153209135611394,12.801646337105637,123.25143127256085,43.51906741600918
0.296,50.51934202602554,-215.73901662207578,9.096816778752975,-138.49742684371205,-13.979080993025905,6.963683092332042,2.9017089618241387,11.287453668425412,-8.85769266467227,84.01399879913527,38.940833963565254
0.304,53.4445451750075,-206.7162781812958,19.970257331659006,-92.20149661218184,-8.306852061751966,7.797783432447743,-0.6120561173817838,14.066450348891772,-11.95076141897032,59.69007845471399,28.617780802219304
0.312,61.191637587071305,-207.27504344428738,27.75636942906716,-78.10210479840417,-0.8783124070132501,13.980275102473732,3.9473505419903296,8.069874187385008,-26.86383090721039,47.314137264170625,5.707632479801903
0.32,48.99086650306103,-163.30142035442822,16.17128382834554,-77.84205043281264,4.817079591264966,13.601842152871592,10.362578681238151,-15.773415242771266,-69.86306288344497,30.791162903850406,-5.642961296977537
0.328,9.934891509304283,-43.25567604202281,-11.475633970351822,-61.40002540357956,-1.6811793449762962,-1.5863691954147738,5.286682400291857,-41.145645155745676,-109.39006883381568,25.17189920466019,11.264480889643071
0.336,0.3403756189063367,71.83772847767408,-25.51419520385679,-40.146178821819554,-16.243815199807404,-10.93038971112738,-2.166396833810703,-43.98754072673669,-119.80877600219256,31.032287747147272,21.618501078969633
0.344,32.666226381073926,114.54123661431107,-11.067672372425076,-10.851170358376983,-25.7177279858249,2.0797776081012147,8.53384155113855,-24.25411605855649,-109.08354938851207,17.07948681131172,12.100130571709524
0.352,33.45512421503476,122.5878263611354,1.5232999789596744,24.073014859833116,-25.16643270027218,14.121448817545494,26.43987086517956,-11.241731218923732,-83.00295461330843,-23.752619180783068,19.133542230521
0.36,-10.654689074246475,136.15444601926566,-11.41925903756201,37.60261123408605,-13.929880408048863,3.1746547232936915,21.60816403721176,-20.98687781667542,-45.017001236354275,-70.41169210739741,34.23294205156216
0.368,-31.33889194796082,148.36974191727245,-23.207902579191074,41.019906407216745,1.7192036702259685,-10.244932536701231,2.560687454848714,-30.328882766143867,-13.13123047141762,-108.78650520924965,18.138039827081894
0.376,-16.762401063654796,155.35181388505973,-11.603056675090267,53.66703159349617,5.032788580810443,-3.7613914858953748,3.1760165966678535,-21.78856918306553,6.944532549989167,-119.40411959488756,-5.37079487342421
0.384,-8.051206703157769,150.70463587933475,0.2631370959052877,54.57929469782004,-4.831759715209938,5.466133780923351,13.412662076500949,-12.825219799194103,29.367839787698873,-82.287816527752,-7.207104457721279
0.392,-10.833339290875763,118.90179888725481,-3.9861007600676435,52.209473803216376,-7.151928669637428,-1.926550604566919,0.8963035862540358,-11.515979579577774,48.85236980462755,-19.135109475621256,-15.068884686078476
0.4,-13.013767487554977,70.05185559006564,-6.2262786471713945,72.93298616865671,0.8929108287738835,-8.965767542292404,-14.07437391632136,-1.1569738537679524,40.79526880982209,28.616050104803296,-31.280313990811187
0.408,-13.179137865432626,28.952590771928737,1.2264780975060345,79.9336984437267,1.0507272766809173,-0.6650506891430639,-2.049592559063146,13.876706699647645,12.630143975041367,52.98827207686378,-23.02225758385444
0.416,-11.759782079733755,10.588543941470506,2.0938505957882714,50.478545735936855,-4.913415382131829,1.6006799665642282,3.7990985627042173,11.39849024269374,3.7557683644520274,61.125666051080614,-5.9461555034662545
0.424,-18.082140668133817,22.01419585503668,-6.378559356273037,36.42174094371443,-0.19423295840721203,-13.03737721725164,-19.116013908581518,-0.7005718186672423,21.825930066445586,46.50932308687336,-12.492889175122663
0.432,-29.36286100587698,43.28369909355322,-8.193475921091116,51.12411108467175,10.534638432004547,-17.900881676503836,-28.30510038031908,-1.5070934169195154,34.61094127745882,16.27842413892115,-28.475541433926256
0.44,-27.039297813917237,38.06449936054594,-2.648178476167773,47.10952473670514,14.108902910708313,-7.189249540168164,-12.20442473632854,-1.5373832666694889,29.71614914414277,-4.387076314953594,-32.85158262485689
0.448,-25.159847983893624,13.065372337097893,-5.050511137436478,26.324532060138853,15.332378875529079,-7.653831483140606,-10.449970441017223,-12.513328567650241,20.517868752186963,-12.638947723818257,-25.721810355915782
0.456,-40.062958179367676,4.333886851367232,-11.201686110365285,28.518649517383047,18.403881196094233,-15.057100776512087,-17.016508895320456,-12.600997584880778,9.516298054504398,-22.697042236687974,-9.916722464591283
0.464,-41.24710125019221,13.96513640899046,-4.705726367237053,42.42403244028694,15.65701202853097,-6.370236349074277,-3.867722101091449,4.717253916452394,2.3615326439668562,-28.258586124454784,-0.7902474162734169
0.472,-21.714711226628047,26.513340969326716,4.418060043052809,34.213581136161984,10.544612371977205,4.487068431680416,6.7843797342570324,8.172797457598874,11.30876904162054,-22.41804796220226,-14.820227982351364
0.48,-18.714197629156985,45.073616447098125,-1.3012537896796637,22.1603105194503,13.225325311862703,-0.9543481425736626,-2.9659010780514428,-6.21529163022099,18.90167613321116,-24.894987682409692,-32.5256153454833
0.488,-26.87273921865347,66.82754683976914,-10.230673844741919,40.96368758170508,15.623410096647985,-10.415349660469403,-14.244390510129662,-7.843113680694354,12.201747076075591,-38.31784503805661,-28.15042572934993
0.496,-17.83807819308685,75.21914817278063,-6.804746711194851,63.40284863840297,7.623879651664289,-12.3772961499748,-18.824409031895087,4.272744484703908,23.632852182330975,-32.91610078349714,-15.883754358973057
