time,C3,C4,Cz,FC1,FC2,FC5,FC6,CP1,CP2,CP5,CP6
-0.2,0.5811077771699436,60.34326038033179,-11.340084440865125,-0.31713729657390766,11.172199434458145,-7.5567669178609504,-11.88432491919528,-3.284757456282083,-52.54161112077727,-72.22799553819425,-7.826892058393611
-0.192,14.045135463931306,37.042988004012265,1.216972165626619,-22.78900674693709,1.5158231163780913,9.344362078631798,12.470374642548979,5.456690462157773,-34.3739037652911,-60.25759274932074,2.139052453739317
-0.184,-1.4150000256625936,22.257474213914257,5.114788638761506,-45.85618876343989,2.614804090763302,8.901141884519957,14.01485756540609,-0.05182008379125856,-30.383076333870605,-67.02276476845155,13.655245566083796
-0.176,-17.62494561383052,30.806512320613283,-1.6856791365130466,-25.219034802220502,11.696872536832446,-4.23208095326769,-2.484806952708848,-11.069954313784384,-47.10624382271044,-99.83589993273516,18.399771172851562
-0.168,-17.35889143466476,51.37424554631492,-4.464553189263692,-14.875664370921378,12.080029848995942,-7.962989131881737,-6.312645736209308,-14.632565257644034,-57.83874909832368,-129.06564076928822,26.16131023702385
-0.16,-15.321261169368169,71.7938371187037,0.8914559346131319,-38.70924378047724,5.175135018209161,-3.776773684198197,-0.6845942409228293,-12.116442376716625,-41.245240338897126,-142.7519798320319,35.77974690899853
-0.152,-12.355827081425712,80.15930276250879,7.529170438911772,-44.19370880782726,3.993846912664844,0.0955277583437271,1.5795510535170725,-6.209709911006036,-8.071941411629707,-152.98923007627596,30.725842211588883
-0.144,-0.3323008190846481,67.27185217008541,12.449192955694773,-25.507264267521535,8.438443841784695,3.9055200897240434,1.9306883107164985,0.2615564911145146,11.146329488855516,-155.52708287739443,12.985468010572678
-0.136,2.271807902093511,39.96089253979388,9.94587016866885,-21.23734290962817,12.540485345078736,2.720000016162162,-0.5560109523900885,-1.4289306306628577,5.767794178504577,-138.5702248565595,4.4269486264749816
-0.128,-5.66369708275789,8.946286938393488,0.11334623177021037,-33.71220479992768,14.24831987601918,-2.5319541925659506,-4.047246196514648,-4.779885490656542,-1.519210871244386,-115.49167429249633,11.078494598598342
-0.12,4.389205998107676,-11.44641547608603,-0.874077797770144,-47.39486338483391,9.42143100173286,-0.8093853907797209,-2.4639046351371316,4.486747734748982,13.332608136472563,-99.0912013706333,16.92924667593937
-0.112,12.702081037096479,-0.1869632784024254,7.9188173405021995,-50.26648449658048,0.04834849054405811,4.055928736630604,0.4678582422358895,12.5559451354068,56.19826498024442,-75.63821381404567,12.58253565289265
-0.104,-11.291745254578869,21.804552808299487,8.86940588003881,-29.690311702736345,-1.8807164306683362,2.5625664920299687,2.078759373453423,5.523066748280978,107.98979358928521,-52.988706648012766,6.787455834490916
-0.096,-18.096975230293623,-0.9572158499393469,7.6225309000199255,-2.4996188404435205,3.655842927942969,2.2480998300689716,4.593546205017843,5.172452397058192,122.5430524174473,-62.13606494489201,8.820787982535721
-0.088,22.503094539973475,-59.60230410881696,17.92242062154043,0.9392159978692749,2.6070059186560535,8.365410437680268,5.278983628755781,20.12265917378124,87.04397935242513,-71.10367852590785,14.790660611049505
-0.08,44.91761128219335,-96.22930550952387,23.742811207581873,-7.75270454813548,-5.999566121079737,12.371668451651084,6.991422780046831,24.620490948724374,62.00962808521592,-20.482638515613008,15.718794802531157
-0.072,24.997963478504257,-111.85567454993061,13.617749273039259,0.9752953004894411,-10.267364656224697,9.920117647455697,10.468364103124582,16.623801671357832,84.60189236075585,61.654359495472875,9.040470412573724
-0.064,16.998625837794332,-130.16139845083796,3.982284270532905,16.990846879562888,-12.45884933072515,3.2568432752161276,2.6520034047673993,16.738017713397156,101.4946887655559,133.2378610788906,-1.4824513462636646
-0.056,25.932623497549553,-123.2409009095684,-0.8653157755983061,11.57574370356524,-25.132640260083026,-3.1721318632283624,-9.755349081881189,19.914310156575972,67.19755400624298,226.42036425513743,-8.133008086965253
-0.048,19.25270661505349,-81.16805565116697,-10.559951504674785,-5.213751671281905,-41.741395058653715,-3.9402417608872398,-5.908593450988825,15.82354118743648,11.669594822227578,322.4757406303759,-6.54455688828861
-0.04,6.948789676855514,-42.57952456036519,-16.258830037632404,4.317685471753692,-41.6697650402493,-2.5044521560870794,0.9926048331813765,12.744470696874442,-28.071126890554524,327.2862779971845,-7.196313416277957
-0.032,-0.30371323725435956,-15.050386529537843,-9.095927996082086,42.56419814910163,-23.99610453145608,-3.499354148728458,-3.9252514567058348,9.821629259162329,-51.48001015564656,241.7722739717499,-19.88224175652073
-0.024,-12.618337820250142,13.816166389696642,-2.9894275550122633,74.90825270806718,-5.15095079375251,-2.3380879503830623,-2.6579410535883246,-2.6339734370945287,-68.06084942124305,147.21714313030841,-32.75534520984946
-0.016,-22.305823085230333,28.491941888832393,-9.347040907549445,87.33466399718864,11.11707699261051,-2.2946599872731612,2.577793646404262,-21.721031446202414,-85.32633209485124,65.67721176013414,-38.58257070190983
-0.008,-26.25776823590162,42.0880417065307,-21.630905913460765,90.04860589542155,27.209853650715115,-9.927002050355064,-6.415732035378457,-40.44282620707403,-104.7310385406297,1.2794881196509043,-51.348396945063
0.0,-34.59446701601971,96.32079008614463,-31.82502177288009,85.58002308646698,30.761833219506382,-13.201306510617743,-9.000407077555288,-51.493483165162274,-120.24584631756368,-11.840130927052067,-66.27005534841292
0.008,-34.347339732645715,169.05849767912517,-36.47522051062112,83.49502133230358,16.089376538024286,-4.704811063502592,9.010132161010276,-47.0153049064891,-137.57093372688738,7.01117995925088,-58.64006448382459
0.016,-24.660957083704808,208.1814070567562,-34.956112902205824,103.4002089985565,3.901070517457764,-0.6418737769493235,18.09825040023398,-36.97207223806121,-163.68540303326864,-5.307657578583589,-34.15376338301652
0.024,-42.42916806292724,226.74391169480842,-35.835058589281296,137.71113007875576,10.114983064452781,-11.067259005720706,5.77581443795429,-40.157818676679305,-178.47029653701668,-51.32111289242935,-18.48602125498735
0.032,-83.1828228645049,254.89941845400907,-46.30768513176636,164.05412942758946,22.76036249666087,-26.864622751027312,-11.050159719166125,-51.86008796119754,-163.31476293187637,-84.80854179240038,-16.963885981062074
0.04,-91.16188517853816,275.5692177536636,-53.979663271672315,184.11906344778293,28.395915600390996,-34.62986183834231,-22.5625450468296,-51.258089044867056,-133.03576830165298,-96.51983804284686,-28.454313619709524
0.048,-62.95432214903523,271.2879310710505,-46.357713297231385,202.33767449032143,29.812678854521398,-25.816438293294116,-18.823030069712132,-33.35230295873052,-105.22255274168663,-102.88989282608374,-51.30627253734832
0.056,-48.31420284343774,246.87353610351022,-36.95434711060442,206.26418671794357,28.916491715488213,-11.428731794237661,-2.8429074781277195,-14.35642192585842,-81.77143283731675,-79.03380607044791,-66.44817365878409
0.064,-56.06610191806654,202.2259710656734,-40.67957265271494,199.1224217066327,23.102808169876543,-13.051108397309301,-3.1932272247150455,-10.184737752656888,-69.80289745159133,4.979811501558882,-65.73857088687733
0.072,-61.67342064044102,150.08470257699304,-49.03029127834926,198.36742708626053,17.925553723642047,-25.27030159615622,-19.835610774181077,-17.07684395308886,-76.22253291079122,102.32669289103306,-66.46168832394581
0.08,-66.77680569061324,122.6300893103679,-53.920084917848456,199.10059859182354,18.88973826616031,-29.3210106489169,-24.277599014059003,-22.429076000108115,-91.07819828400338,144.78329203128644,-70.54185353352966
0.088,-80.5508946282467,131.5344421219541,-58.479578417697766,192.2151335578335,21.725912539848004,-30.891633258654654,-22.78452649976334,-26.818703788187634,-98.22017238195384,136.7612622102134,-66.97390938806109
0.096,-94.10977055194397,161.22171020381987,-60.8602069235301,188.75323619101954,25.247335197304498,-38.28278579101664,-32.95205738237661,-34.31056775433108,-87.71850360856374,107.65510551970242,-66.60518835258347
0.104,-99.4296572690606,185.795592274327,-62.73951198792013,186.3430361950842,34.47538857368885,-41.786416990267156,-40.13050957980285,-38.28090792970191,-65.36400470208434,58.69067968905105,-78.96637561436083
0.112,-94.17919403881673,177.59231122147162,-69.3062189276055,170.42601437142446,46.38614024161732,-38.0786030429572,-35.01468889320145,-36.3390125410112,-56.229106838269836,9.078258329583157,-90.47334778145819
0.12,-81.10111567295476,139.07342489868387,-68.7881003047597,155.7106997593661,51.79461979840277,-31.672458400866464,-26.3494987428679,-34.88575620885062,-73.52451510466581,-9.356508328747918,-90.89894269318405
0.128,-75.41744552768522,109.55482008299565,-56.85178441893098,153.35992546299425,48.67734160560722,-22.39621325977298,-12.591165365378494,-35.660444781258825,-96.2106364153361,-6.509275742179171,-79.51819234574671
0.136,-83.24934085295763,111.71575699715099,-56.00683871456638,142.12733408494725,43.52063078703698,-17.140508261889618,1.1257386284184698,-38.71553196776683,-106.38103392119265,-10.028858150279488,-60.36778621730758
0.144,-88.34156091652706,133.12978038595466,-67.86018211437441,130.7157745984778,43.77027031585405,-22.73408054328519,-2.7184137791367866,-43.0053899601227,-115.28698999976196,-26.363890466427403,-52.768311281633835
0.152,-83.89202878518738,158.63537296665626,-66.97827435367464,149.55944535397794,48.48858796335196,-29.911943101146566,-18.67056789396892,-41.21951398045421,-124.88606964393884,-48.88428426684093,-63.82425092894809
0.16,-82.55471103334192,176.20743295907025,-57.68251677988501,170.5242621930872,48.87282320727348,-31.580526901127715,-26.226207385918045,-36.85716998458537,-113.80562503952693,-62.28288578543282,-68.89949863950551
0.168,-85.65299322119085,178.71930856114875,-58.84102415297257,161.64517338665996,43.38183824505343,-31.257991237588953,-22.468394303145725,-42.05741343673773,-87.53457266209625,-58.64003994247187,-59.85442835589574
0.176,-83.18419538221843,180.22081363045115,-58.27006957217449,160.7724457379309,39.493131247238296,-29.031302564058688,-17.014042353416425,-48.04356493318867,-81.39044286717295,-58.256304835654994,-54.77542021328574
0.184,-78.4483145543093,190.87251741546092,-48.4967274054382,184.66660279976253,37.805519566276956,-27.75556009722747,-18.290417215234086,-42.08274978670016,-92.94360949726212,-72.02873205818149,-50.18676690460328
0.192,-76.85264078261505,192.00862235990093,-45.80569125199062,187.58165877965027,33.30514577898782,-31.888567877501348,-25.701848417334993,-35.55425415356045,-80.16907795324283,-75.67410966082474,-37.68851256876606
0.2,-70.10434656863006,172.61845605104267,-45.11450635370851,162.57007415043196,27.6946776457339,-30.409174845385948,-24.842861879109734,-32.19841973903792,-33.963356608353465,-59.02335361355044,-35.78858208476799
0.208,-54.66031123022599,147.68316231138456,-31.997380434096225,142.28598776619975,23.408405362706088,-17.063001362917714,-12.140116804855811,-17.78824115658242,12.074767645087944,-36.597504528853726,-48.70222540260686
0.216,-38.36815470514865,122.01682751110155,-22.567230992631778,123.74638289080694,16.664064132336737,-9.783297923632265,-8.39606446569061,-0.6441128960897453,29.25829082051716,2.5774694181486604,-54.28411405136057
0.224,-27.525044886229445,88.90877817949415,-27.712369024670526,102.5080350218257,6.913804941274108,-15.336735181218174,-17.569113210419456,1.7078474991346533,11.91542890032814,70.84975027903133,-47.67256468724392
0.232,-29.22144128898832,59.96523894410026,-28.157576160401927,98.2432477815364,0.5890489247287268,-14.907476572411914,-14.069407725045746,-0.36934304861331907,-15.849942776838603,122.75762140436973,-37.67122081672611
0.24,-41.815177820916965,51.18180767603406,-18.45673569764869,100.072212311274,1.6881235869661189,-5.794452547203406,2.039474036415878,2.632502240996765,-13.030268203978974,107.34640910222376,-27.13862072490311
0.248,-45.223198396950394,61.34967565177819,-15.494847751994449,81.44528855429651,8.191341681818205,-6.446327400815047,-0.7311959411898068,0.461744785098506,20.28456417677879,45.90308566764392,-26.850164476090647
0.256,-37.82579801362708,84.67922785135791,-21.972702913618793,51.08461514667104,16.87186595121,-16.0709672285767,-20.39898515957721,-6.743155046513358,41.59775520513225,-10.620219373480607,-41.68716434692048
0.264,-41.794373698908,110.50899460557591,-28.319212030431746,28.57954275565811,24.521911227490428,-18.75121437457212,-24.892462432130877,-12.01166632438168,39.40558581379696,-49.956690743698374,-51.60412605725322
0.272,-50.67452989097041,113.81325303822476,-32.126340451079315,19.289042619537426,27.75574368538278,-16.171622270346855,-16.044365436489564,-18.416380335503312,37.01174704894923,-75.64205745983067,-45.02945618720744
0.28,-43.55297071651697,79.99665515415623,-31.98451887258985,19.173261729663224,27.281794793164327,-14.89306778754049,-12.700249543229587,-20.709763657911402,34.92858343427897,-75.08825056854165,-36.454134818137334
0.288,-31.26837765885711,27.32026272023367,-24.33452231216908,12.497251533284881,26.848118201219528,-6.702215498158481,-3.3349713859355834,-10.488922704643294,16.50013765851107,-52.594975720989666,-33.55337234066955
0.296,-25.226556391391217,-7.756984848125969,-14.493759910536399,-0.5638908870206163,26.20584434902858,6.162221107411731,14.909388251581285,-0.5905449458527331,-16.978010097053957,-44.340660179972446,-26.04546187178607
0.304,-23.003688689577224,2.124343941077789,-15.098702396463414,3.0708557948669477,23.829258105318996,4.3833024633312,14.750965474364552,-5.6027771222158,-48.17422653663903,-63.402485491112465,-11.227405724337691
0.312,-35.44899328354583,48.511046073977624,-26.705735870426913,16.034401762540448,22.307529569221668,-9.68099827113747,-1.2068861187917082,-18.724788576730845,-55.39346184425856,-78.40069293285,-2.7052095099450733
0.32,-51.22801633374036,85.82049015626639,-30.199962175832685,15.19557960573467,21.573868899809842,-12.143625208385261,-2.2739830517958826,-25.13401812155173,-35.07534632824867,-76.10145130310181,-8.241683564179018
0.328,-32.610998051123794,79.93575672087614,-14.331206607679599,13.714087888557453,16.90685407201286,0.4179179814652377,10.034345803450009,-17.247100847580118,-19.766376382640694,-77.99017782983418,-14.698240520400024
0.336,2.2204424459304644,47.892403214335076,0.49727966685065067,17.672135449210785,10.166745505837962,8.977138923208988,14.883117315291063,-4.749947343185912,-35.47647078037364,-79.82467646069951,-8.498933608796237
0.344,-2.5205294671052973,31.718511436535202,-7.696279802539918,11.849921171687047,9.420364790664552,0.5372963047685952,5.474257688093231,-9.204003115136162,-59.04999081109495,-61.31273897257229,2.191590669449197
0.352,-33.85147464392421,46.57566133558424,-23.66391935301067,12.295869635572169,13.142130705892129,-16.74905118349819,-13.03043246713095,-26.24980339196593,-56.541009271905935,-40.46773543638299,3.854692270803037
0.36,-32.492101186255844,67.16931168975577,-18.302749398428766,23.103956392413927,8.854023172068658,-16.148733779855835,-14.525344037976788,-24.045437254399996,-30.689395226102757,-35.88286782578113,-0.28372403520336453
0.368,0.2763817727163442,69.01641818014205,2.8513708354437366,14.18568580624745,-4.64416104717888,7.623276661767529,13.079320167182185,-1.1237978290155581,-7.774465089016307,-29.87593908228235,-1.1807273044522921
0.376,7.528494399680669,65.62318388259668,7.552146715797959,8.303594039653946,-8.513640569678394,13.844772336253964,20.215772466562445,7.505328928838471,-4.881693558048049,-17.024188852459243,-1.988296553962185
0.384,-20.82682568760534,71.60792101992898,-9.389783399784491,35.021946177952664,4.398286731542642,-13.60092478145874,-18.513851382604013,-5.3287750506139355,-14.721577860423903,-11.486237016799256,-9.936484884280079
0.392,-24.994083966584654,63.87092698337963,-15.325138663578379,38.17015995418268,10.329561808999015,-25.454382395844462,-38.17634384808955,-8.330648028979084,-19.05001385729411,-8.551209973043427,-16.62921535500487
0.4,14.666134209435349,32.130503060691076,3.47490869665385,-2.9151257773329613,-3.3961169733680707,-0.5038437960549379,-7.341801368284178,8.543461344022143,-18.342455706177798,-2.4150210307469253,-8.139259416165743
0.408,33.243706748273055,10.827188404172915,16.18246603088647,-15.26760549290686,-12.346699030590676,14.65804349983595,13.83474506693903,17.75384759861472,-24.37091181110308,-1.0355910560733619,5.5274083889123
0.416,4.476683902162846,16.30627757469946,3.0731555945987923,8.175755397881726,-2.902516812105857,0.7027820089211037,-0.012418638639911512,4.498638360030664,-30.90415747853014,-4.2262464173224545,6.061021532084013
0.424,-13.998611692751037,24.214115312455036,-11.663252159016483,7.205982806807308,4.447305111868238,-8.839515998069423,-8.07485424619449,-9.712493829876756,-28.32811128750443,-11.967767883783264,2.6858526835130365
0.432,0.774542483563553,21.401651522483718,-4.825761198289168,-6.0270146840248175,-0.029500693941981283,0.14752232818014227,3.366750788724438,-4.848494612962106,-24.459494443697647,-26.145445933077372,7.482079750515247
0.44,13.919097253996805,12.646746406227571,13.417330528621871,2.5064059507806196,-3.957659223021016,11.71795017256122,14.374595825857492,8.454349601668916,-24.00340713873707,-28.60702612828794,7.902718994187145
0.448,13.867859442474678,-0.590359498801082,21.239944546563635,9.700090968529867,-4.512050978602958,13.355827800784159,13.946555302733739,9.202636459213132,-21.3008354686082,-10.293411576462153,3.0218418956752076
0.456,4.4275853749081335,-7.020773493771296,11.007759293231715,6.841624960819475,-4.773456025417356,1.3814069720512188,0.6319124008535728,-5.870192468759934,-19.027527310736527,1.5965019716160729,9.842039642302147
0.464,-13.045889758625401,3.747196953633432,-3.588258759528517,11.39554158968624,-1.7878245203809904,-11.57150124203538,-11.14719718628616,-20.61318869417956,-22.36450584896663,-8.994421247121648,20.19734981341348
0.472,-11.354202527548608,13.55430648205577,-4.2204293144294285,10.537996017975152,-0.6795601065266987,-5.738016200038477,-1.5113832792695305,-17.849231284616003,-25.901859937131338,-20.311679292132997,17.32720572327736
0.48,16.811237010866062,5.695752329539343,4.4760063924722715,-2.3029138715289674,-7.368275855879319,9.236171730617036,15.122553049354801,-1.0136077926087366,-22.670452643590142,-13.545518053246502,12.314228897490606
0.488,28.71197283892554,-2.935702053766506,5.527877380694319,-0.9100245487973785,-11.82694111978544,8.024299558269266,9.603698766193206,10.232487561877889,-11.400905922713568,4.510870472232077,12.591565485464447
0.496,11.95137806064211,3.3455979376086358,0.7412499092692382,19.106977215957855,-7.332869005451,-4.742234506552058,-9.744911217981706,9.775503083931005,3.162503836184248,17.726215218408523,6.935626290362481
