time,C3,C4,Cz,FC1,FC2,FC5,FC6,CP1,CP2,CP5,CP6
-0.2,-19.901630470915965,123.53044482165537,-15.046942999983859,17.589623367173502,-10.524284046296534,5.7444367505291405,18.893288680166112,-0.3242727937240369,-24.17202447359504,19.992917385908235,-4.3554523076820955
-0.192,-33.269442469268604,111.87502306444158,-7.258791311238463,41.61820394422193,-3.604773510852159,-3.551778921235846,0.8220500444143539,4.472022836623585,-3.295460012497988,5.112511564478383,-4.408898329300444
-0.184,-48.43299011507584,79.77668995260254,-15.392690699895422,41.157884137531816,8.154953220210848,-10.70479704743503,-7.158211822068124,0.18992083374155463,15.129622163665653,-8.41926611662612,-7.491192496681123
-0.176,-27.52696659041031,38.77728546475749,-16.50001033848883,14.340029710597902,7.478721571524076,-6.768370015727617,-5.596036194711656,3.787190922396723,29.135973993373334,15.272380412332087,-18.814555292917657
-0.168,-7.395902224336129,2.679439445703155,-7.699451098226339,-0.3277370255918484,-1.7621439672890626,-3.0111198996191013,-6.896432466891309,12.054075720416181,35.50596511340881,74.63211334553424,-24.393973348303344
-0.16,-18.284077586961875,-23.886666835707,-6.435992449550868,-1.800763541642547,-6.751529180379435,-0.6207934532894032,0.1754085957545056,11.411404096262617,37.34680341777803,127.07247355982055,-18.38388064407464
-0.152,-20.24086224411762,-38.629141270053736,-7.229175152130696,-5.952073099178234,-9.530651793922017,1.285728275130328,5.876406452751906,9.008136896199904,30.938343082246565,143.92840287525615,-11.314559101258856
-0.144,4.599994174454925,-42.281835124032085,0.7324233056847452,-8.510834621709376,-13.720752682969378,1.2508493291706404,-0.2661501108115632,16.21191540395288,8.894594142924845,117.36751872716742,-0.8935362254433091
-0.136,7.127583592592712,-34.967182444112886,0.2552957881421251,-10.99398329671121,-9.604607951882052,-0.7580144463010019,-2.5394422769162857,15.71156736137832,-4.5290780567037,59.924665112564355,11.998119705235563
-0.128,-19.1579185480455,-16.961312013520356,-12.013990023730804,-13.871497726787354,5.2156032567335195,-6.974201505347496,-5.347265459238969,-1.3804805168088328,15.279999902902718,9.716521512516445,3.277403726339702
-0.12,-18.047773959914075,-9.785971710553737,-8.334662694085765,-0.12762345845484951,14.689055761381962,-10.939690583598974,-16.95357829731247,-6.8308089441874795,31.938119478759717,-14.979814617822445,-19.029736176880498
-0.112,7.483298312967091,-36.00071847496262,5.8858225469179155,22.115870952346906,12.075371623274851,-2.9105130901303795,-10.84333390509043,3.87605661364163,11.000887316825917,-26.728626738009275,-13.693380700301521
-0.104,4.958465887401521,-74.95552427010618,-0.9872661678154465,23.196066406467224,11.44707517663441,6.089716124627651,12.982743696384892,-0.3767192646212954,-9.598946725333025,-23.412240386699565,6.014105870029582
-0.096,-10.941052778940591,-95.30410504947321,-11.697223155585371,15.605569349910551,17.808278573443708,2.7529099247095212,13.691300273936726,-12.775061807969768,-4.409027952594871,-6.494506172268943,-0.293313089882805
-0.088,3.879189016904747,-98.39013216504543,5.552428854326035,28.908005111994488,16.310193032676885,-2.4143022309593865,-6.5995271593235785,-3.760802150415093,-8.89488802552529,-3.5202902908892018,-7.877941140897368
-0.08,27.779162493721625,-82.86913961991853,25.611054684148982,40.49146648754734,2.4407682050542676,0.6289511621142996,-9.82885778767779,9.31295012841526,-26.601914119133816,-16.18797301323472,12.841176528243224
-0.072,24.763672836641415,-37.11718873553138,18.531756259453413,16.62074361479212,-7.5437627315530085,4.386753994793825,2.8613805819958107,1.6454497110344166,-23.3225675841558,-26.005856690372593,27.454518116417667
-0.064,11.506117919742794,12.616186695918731,5.473484191017464,-20.175965692770372,-5.372336497705165,4.374719353027455,7.349895808575476,-7.096794761436592,-10.378380431165873,-44.004104126560705,17.86115870176484
-0.056,13.445401570467277,27.241854824557404,7.626053025331087,-33.76313940866301,-2.089624102696759,4.975585819752483,4.616750696572958,-1.1827123568838984,-10.682653557165473,-68.97807058263747,12.8499985345139
-0.048,22.58632550399668,15.604432016818839,11.75163186789318,-31.87642268421506,-4.229907960251693,7.0222298924500315,5.58466621144297,2.837203371847632,-7.673206832972826,-68.43114338837306,15.32587205613159
-0.04,19.720905652096153,9.701853448789558,6.31592967306503,-31.648439601073186,-3.860348799151731,6.312230239179831,6.973673287528582,-3.2370010284409516,-2.714162260374904,-49.95365780550359,9.973253038404271
-0.032,3.655489649526801,17.384802016020547,-1.2811339296291984,-25.11480611033014,2.214286295516859,0.5506190655679511,1.8238383707570733,-10.261172142654866,-17.41232544843956,-48.016106257072984,5.607419580225868
-0.024,-4.660308364016894,31.03415034731182,-3.2050365551519597,-14.186842774960743,4.844202370459205,-4.562319669762303,-5.048640845550396,-14.734081401394189,-29.699119629315256,-51.701191272984,4.032296931903969
-0.016,11.123502753728197,42.64513652822542,0.9833929956457665,-18.014712279007572,-1.4245751530606623,-1.5125684523088172,-4.3258842180402395,-15.640171105295856,-15.881456939923558,-40.83543980212023,-3.887487162050802
-0.008,33.23210834698483,43.97128016820061,9.457672623591423,-26.529322955706974,-10.244830743661314,4.979615965477244,0.35545879551308124,-9.425887955987847,-4.483410642295261,-33.9220653683634,-3.8610308552858394
0.0,31.997707640776678,34.31033891801414,14.905420760295852,-18.749298805781375,-12.414379965239615,4.3741234191849525,-0.6035009521616302,-3.491927666089989,-11.421685920693344,-41.42915186603955,11.463614081750132
0.008,11.837112455948278,19.17819542449794,4.826232346116712,-20.423886013387207,-4.846982107275803,-2.236776948975549,-4.390063319285182,-11.197251535858472,-11.777466877978924,-47.05315615202822,16.12579189700827
0.016,1.1112324719794142,2.71527024131225,-14.781978043929737,-54.34619068256376,6.05824600141567,-6.372167566249649,-4.801778701530574,-26.2955148932411,-5.722189707095008,-49.807744647930356,2.0998666415565586
0.024,7.263056362706794,-6.517079645783059,-16.291856938452852,-75.74979391708315,9.104122572202956,-4.7997227995638765,-4.145771408957468,-26.717367021385467,-13.669270335163082,-58.40171562070672,-3.1904355165751506
0.032,17.358494379125528,-1.6065125614044489,3.8941781878122415,-58.12610103004449,1.5937246111255532,1.0428937014314372,-2.4545884726779854,-9.253635556317247,-20.510030919501848,-61.23469488597514,7.805526499939204
0.04,25.49848373815036,7.07527171729684,15.218964226126836,-54.6790978432783,-6.19093204329177,7.315353771070198,2.5130393225351635,5.050206414686348,-8.364585039067734,-50.143356190593714,11.494762296261039
0.048,30.100613932833674,6.522964736586629,6.91875212576749,-78.72937580815022,-4.78374689812937,8.487522364385706,4.578731191182525,3.848291433028245,-0.45616713367946193,-42.821974182237845,0.9140876238711725
0.056,28.453346451559355,-1.7369014843415738,-0.4608173450266914,-63.83298804841176,1.734884842257473,3.5297739012816276,-0.906162791825842,-3.5815833264049646,-14.130916854372394,-48.59289333575605,-4.978718475980781
0.064,26.503791965857864,-16.199291137097262,0.7899172977660592,-12.863458099684813,2.810431167893844,-1.855222414143303,-6.752801523978289,-7.403296634946179,-24.067390667072917,-46.31433625645258,2.7492570922266135
0.072,28.114787818417085,-36.997652398856324,1.565762194492758,-5.7771722474765115,-2.161777461274988,-1.817255510731035,-5.0238263327490635,-7.67057859120064,-7.65334612238946,-23.034376359157026,10.288930072686039
0.08,26.48811946294824,-50.02083399012947,2.464948298228461,-37.14821242399524,-4.730953853175928,2.4630029009004395,0.595445339828198,-4.603030599954918,17.95740372064649,-0.7646104511616725,6.522997916057955
0.088,22.122050812531878,-46.001512005599245,6.677158816837288,-40.531491755042076,-3.6612730262158117,2.818609801750766,-1.3416265616121021,0.4623910863829208,25.34040923385358,-0.4822060791215949,3.027545807011608
0.096,21.09211208779128,-41.680856051888476,5.527134956785906,-32.82996178524162,-4.180661858606462,-3.575781752954451,-10.490574808093488,-0.8552574625475854,15.347411154664542,-11.607651128120539,12.489595551155825
0.104,21.963956098811394,-52.94821853941294,-4.1558600782464525,-55.64701763629354,-4.36250268340999,-5.2740770558290775,-8.610363755409818,-7.580695211455325,9.0719245384168,-15.671931576815474,20.556748922748053
0.112,27.102805598150045,-73.6336185896814,-5.890871138538733,-70.47808946582823,-1.45311548870616,4.740200758384669,7.064249230050739,-3.027754550238049,14.610870445044778,-10.938591320769419,12.071684462298204
0.12,38.65150760844016,-93.61259822312189,8.490629522639356,-47.23316289603283,-0.304348681107475,10.781449486457563,8.315706806680689,12.219750828612932,21.187499371403465,-4.05445141844118,2.719862339145597
0.128,46.0050440119255,-108.67956609025951,17.64118966775302,-31.498971871746956,-1.080911880561717,1.0872992303459783,-13.499976524574812,15.77808275763675,20.712803243803783,0.49703730422410575,4.509851878792788
0.136,44.26338632312306,-113.06865261309176,9.350009480152949,-48.27609024465276,0.9689578817415536,-7.3821026325523365,-25.26367950901752,7.108267802355127,16.520199079209704,1.5174139776446693,3.890663879381878
0.144,34.21837921857453,-100.83792447222989,2.8891625222506763,-62.87962791028478,2.380510695388413,-4.11399913553798,-15.888636177817123,2.661668126922518,17.19964743411596,2.038674102827674,1.3663297968264132
0.152,11.656903360942653,-73.46252970668971,3.600737049403512,-63.658424882318045,0.7108248011977162,-6.672393957636465,-15.969137778703905,-3.1478652129701024,28.048501776543162,4.151210280122412,7.19000418171523
0.16,-3.086775865930204,-45.42398072867258,-3.5761287061901106,-77.56373170409469,1.6016330564459824,-16.210662093165315,-28.190613524376445,-14.410215403743008,35.31806959109332,2.6183269554240685,4.971619657809111
0.168,16.39017225093215,-32.91955851383139,-10.183666272082341,-96.57633623573997,3.3353673631595693,-12.404274675976275,-25.049621765824444,-13.837201869030748,17.13447480837955,-8.422817931005303,-9.666808767798384
0.176,38.45718939403466,-30.190201984558758,-5.842930328234754,-80.54969219864057,0.5282722139844996,-5.252614616335968,-16.85351890354832,-5.376230053208202,-12.253385041096584,-22.85082174413001,-6.95327715501617
0.184,26.209604818381784,-24.392082922005038,-6.102184469571631,-47.20388761659424,-1.843273810621833,-12.71682300207895,-23.612011831344073,-9.12666602492583,-15.287511833085993,-25.915586377023352,11.020548468745035
0.192,15.937438882212765,-25.505499667938217,-7.800689262832798,-59.296305565110366,-2.2576316811204844,-11.396681318919795,-18.703395247642064,-13.827380208896907,2.1327994652353346,-17.776632886664423,11.461660857241109
0.2,33.38784083444639,-35.52962153471505,3.884230067142663,-100.70249644495799,-5.969261216788898,8.879344837151494,7.314329278949387,-6.250149123651846,5.250417507769536,-17.43380946761688,2.6690207992264843
0.208,32.12200242394173,-26.986743699952534,6.852970522895039,-96.96894613634444,-6.671901124853394,11.848169270820382,12.370247638528403,-5.6169410011769285,0.131710946062769,-27.509492989239902,6.209676709213905
0.216,2.7927723480464377,-0.35038413431203286,-7.658778648506836,-63.18978297751568,0.15570954784644814,-5.78596096148685,-7.70470134542697,-16.72454310781688,10.056576127282014,-27.730783793468206,4.910473923093649
0.224,1.3476368201886137,6.4597153842449275,-5.7703914221343515,-68.6091997420724,0.9660976999383598,-5.872555927462279,-10.594210531748953,-17.437661921319627,21.078450652367223,-15.888209268292755,-7.4538994915551715
0.232,28.897795553321238,-9.203901096129158,9.462671770196195,-94.00156927307128,-8.238918327081091,8.931279455435297,4.984712186686757,-9.075445635239909,20.37604048016014,-8.170590231333863,-7.15936618621854
0.24,32.827454584361305,-17.448084462917773,4.523289146121053,-83.26014273985652,-11.882700173342549,10.043787292181275,11.09230601575685,-8.61012213572062,25.449575526797897,-7.301607645636233,4.680940839421711
0.248,13.828746655637755,-20.21545812472394,-5.647456835335305,-53.003991363627925,-6.687741195840024,2.5790832511898754,6.47433367657192,-8.871274256297943,36.15861581167981,-10.713768690533199,11.783167770945754
0.256,9.73880830232219,-36.75411694297337,0.5545217894426505,-42.65520719790912,-4.475572556695896,-1.0309199083909057,-2.119058631490074,0.7703174778037146,35.15343336452756,-11.755070043119234,17.09906751267642
0.264,22.048869239683505,-59.84879018267642,3.6002544741321736,-50.640132829212874,-6.90640321787226,-3.1194468703871836,-10.636741969302477,11.199085822388982,32.8476509292016,9.64746200571199,16.330838318076992
0.272,31.905378576501832,-70.62003644903967,1.9093543579701215,-56.746549013207826,-8.121687767281351,0.7707291408931953,-7.421435535553132,16.06610603024983,40.641938474384965,42.185070408835735,1.342129880301138
0.28,31.32796663087563,-62.44954668270827,11.627317534521422,-47.26932706202445,-8.108544152716842,8.208297012428696,1.3556618773977447,17.1995266287711,43.743223013187745,43.57827554124644,-7.250247288725689
0.288,16.95005679862357,-44.312206437424244,13.267963533397586,-32.098300722539086,-7.828116987057454,3.7728515028956866,-1.7554261198098609,8.999611346908873,42.43659757019802,21.919141088765315,4.487134165046946
0.296,-0.010149089656147931,-34.760674875645854,-4.612399084940242,-35.75852657186518,-6.508720732103533,-7.023094199820826,-8.195236755935358,-6.809907640438189,50.022403470434135,14.8150412038424,16.1304702742041
0.304,4.788199064911955,-38.2767737025723,-11.063847278562783,-50.32755530459056,-6.070668595712698,-6.730026197765642,-5.799020175990139,-10.189644817513669,52.99768221825796,5.7616972051819335,17.188917028947273
0.312,25.09610433128795,-39.620464129083835,2.494527447347139,-50.47271213536886,-6.475575900669617,-0.4186788240026467,-4.4279104349313085,3.8442357426166507,41.732108322030086,-26.679506158602585,18.347530921721074
0.32,23.3678718484451,-30.526575101177123,6.431656982064425,-50.532236503054094,-1.9831225795284062,0.5645713513634543,-5.422763033398573,10.797546452337652,33.70387994973424,-55.928277064363805,18.21284439309202
0.328,-3.6932623081994076,-14.080209766644334,-5.760285268780185,-72.7821788317883,8.373631173244505,-0.7885867546078714,-0.31511767237190325,-0.8156976481299327,29.726530140240236,-76.43083760627358,12.234494820073259
0.336,-17.964978752352025,6.799948302446319,-11.766917273618356,-90.60650279531146,15.9378896678228,-3.5178049498711736,-1.4584379016904319,-11.57944231477401,16.751047302012037,-108.34603355095923,8.746645884951329
0.344,-11.481037656918094,21.477709932401783,-5.342089331861438,-74.04347350713645,16.907836071880023,-8.961784160895723,-14.637914666373952,-10.839893792303775,5.47232300927776,-130.57275618267576,8.147106451614267
0.352,-9.31694417271769,17.104485115431615,0.2318275631428098,-51.30676399940814,17.18686798307375,-5.723856972532108,-11.187548021587595,-8.270165371455828,5.728447586222636,-123.83178217370563,3.614818412421211
0.36,-8.500549540176689,-2.4416906996161143,-0.14709272304162566,-57.13058807866213,17.475140318470334,8.426246234075046,14.395995804390378,-5.4452539582828825,4.977666591785778,-117.31943991037475,3.81976472590194
0.368,2.9115538892361172,-21.030115280173963,-0.6115382894744498,-63.33482932592609,13.859498154405316,10.401607260315934,17.78661377338627,0.7887847993003685,-2.0968853292554344,-120.68181648938942,16.770436993087312
0.376,5.440221565715791,-21.03270344057481,-0.42113310623737316,-39.04666986496132,9.756666934329992,-6.030066139542257,-10.313075968254939,4.428156454994543,1.8747173207613355,-109.61656536762548,27.344776619280953
0.384,-5.965427604009014,0.026792634366607365,-1.3424641491211156,-18.702086656466026,6.178475729732362,-12.043824103604015,-18.98749891482091,6.333509111258945,41.068680569620994,-87.39727176298702,24.16894701560181
0.392,-2.818801543501698,10.022543612651901,3.654090054968573,-23.689683333929132,-3.388851626160069,2.313323079517643,4.040258063119471,13.910974311046427,102.08384332043694,-67.07712954853204,21.67445234014711
0.4,17.87542616473985,-13.938392090582372,16.465586872253148,-13.350455107048516,-13.908302372091763,11.712783701975928,14.453929791103487,21.634116163148537,116.2588880502107,-40.452531387861335,26.908690704875454
0.408,25.33371719870034,-37.849346966282894,21.64280184326676,20.635071512919353,-12.13543741173873,5.510930340848089,0.7353286283578778,20.19952173412505,63.81701749618294,-8.17235668983652,21.217317394157973
0.416,9.209541209842714,-39.3923052163717,12.64674562330433,37.40512773614687,-2.882254295543562,-2.930625384729262,-11.256286362330338,13.589804564268418,32.1909230155667,29.519597064408725,-0.12680072959624958
0.424,-2.1592915535333663,-52.85790688285469,7.472741467636178,32.86641484056476,-2.9881908479007744,-4.0883193833648415,-11.780136380944281,13.641553856081302,59.740118446399585,82.18944229483088,-13.511401959583614
0.432,15.726451174289178,-74.3842736030657,13.918880069903851,26.48228590739035,-15.222538712376062,4.435671574130636,-1.2045084368374444,24.44999019751592,66.33179665942353,128.30643090545493,-7.866974175253852
0.44,36.267841966764315,-52.09612078072814,12.709616303619129,18.586812075139022,-28.541621639219947,11.43125482152499,9.962088165005868,31.12277520167274,25.798722943042854,150.5581269102156,2.8958774030289374
0.448,20.736701079391874,-4.251472532825547,-2.795871003059033,18.355244349917854,-33.37480609846913,0.6662390024369037,0.8157111985509363,18.82290427011781,-3.8215660097724844,175.19508213468652,7.7098445438026575
0.456,-7.204343420743624,12.922004273273688,-12.88064009014425,31.672744100797686,-27.572368522893537,-10.072290147356318,-8.71907337820155,1.5930531049075443,-29.80618226396839,188.16740509678215,5.499789330289228
0.464,-11.448548312074843,18.99774198567228,-11.096098125276505,43.52190143583326,-14.38206095575721,1.9605431551997852,12.202329172592032,-4.173045869396197,-81.50516475950857,137.04626209598186,-3.290026922838463
0.472,-17.47929312705136,45.43858346313238,-9.344083839436562,58.56916645662587,3.4711637996070084,10.245343703244709,25.419776035102352,-11.022570586824127,-108.31390179248432,49.73273278605087,-18.307914660358218
0.48,-43.14867343871267,68.8577131129572,-10.064753786105415,82.13561995630718,23.835438472648384,-5.287421817303365,-0.6285777794768095,-26.560303762337877,-93.70934061580874,-9.984930761709839,-39.75632147102113
0.488,-55.0029185859246,95.78097174521223,-16.130239391652108,90.14909244119178,37.94891874117615,-13.637362189200275,-14.11491476165592,-37.089673461904866,-108.09823834798236,-50.6970825891482,-58.12996348035934
0.496,-45.6834031680365,161.3263836805492,-33.39804581623466,85.01173781959056,35.801086354357324,-3.896159337510286,9.333898673121666,-40.5185282075009,-160.39195040736195,-89.39071934817852,-54.62730453984601
