time,C3,C4,Cz,FC1,FC2,FC5,FC6,CP1,CP2,CP5,CP6
-0.2,4.331218676975805,-49.915801699185906,11.742325932448761,-114.00983938065457,13.742884940906487,3.4935327798198856,-0.3722099558249167,7.044151732275949,0.6984113251910562,-145.69226029704174,33.636924188776206
-0.192,-22.091774267552555,-10.73362459946825,6.055920388799599,-114.02294804076706,16.4383355276586,-2.5860479908929026,-4.924283384486277,-6.5769939944671165,26.673301381895353,-149.95199498765635,27.20293434139599
-0.184,-8.936582465677782,-11.873810579638553,9.302642461411034,-122.05265903561741,14.723700485747315,2.6356837175109975,0.2159088845814288,-8.919644651540404,48.49326107443325,-153.84320434035595,17.912539802104476
-0.176,22.629633360301685,-38.88901036594969,15.85864849998991,-109.39832346079979,12.87498714741785,3.531134125808793,-6.621177629060528,2.829072681927955,47.4393698273384,-157.074320731325,14.422076378651784
-0.168,16.132180688139098,-57.83399905755967,8.18739460982935,-88.54519548670928,16.847583384309527,-4.801084396940107,-18.129441980010142,5.954998721048076,50.656448152617,-132.7411392055401,10.542721551032965
-0.16,0.50736857367467,-72.73217212280007,-2.3810747824967993,-104.99089847906848,16.073283664815335,-4.034733538494559,-10.724048348054602,3.515688529393522,61.562780543267586,-87.45729546810843,8.79490918435414
-0.152,13.612715377657823,-71.84854741940684,3.6624332578069114,-115.24362022949221,2.5839400563768393,4.148081309335079,1.19933629112858,11.16780096212656,74.48324377664846,-62.36017424427528,20.425088100394362
-0.144,17.967059526442576,-48.79044359429049,14.87693716946742,-62.27992647644148,-11.224069084806722,2.2711245875965793,-1.9170779502592006,17.07278451493801,118.3841149911711,-56.639128592311145,38.5204176858198
-0.136,-0.6104778219549418,-53.49473910501965,14.852785862907174,-3.162798015701725,-11.941018092159627,-6.093396511158426,-10.16776583806257,12.695260922525444,169.06395258985793,-36.42341543048136,42.46082767899011
-0.128,0.47048533065200354,-101.57136117910355,10.682515153555267,4.938092129582018,-2.6697948323484755,-8.421564061900968,-15.252312347961492,12.919836667922588,153.33532089949435,-9.002172145326185,27.030285136499366
-0.12,23.034734121917662,-142.35696755885954,12.620171666772956,2.846180974760703,4.7963056722247,-4.629585461833592,-17.444836902316506,21.185177187427556,97.16659775248245,13.684530748942686,5.289898430864663
-0.112,36.78518575307519,-162.43984725082993,18.69618549136454,20.894086494302925,-0.15668647500228686,2.2213855141993477,-11.266680493008941,29.556279859035303,80.52468120569759,73.00364851154492,-7.876356922947504
-0.104,40.9139690964901,-169.11543759180475,19.54396063218411,29.283330511567605,-18.67418705934074,7.207906048639938,-1.9507195863642388,36.64068516698676,85.88818378905337,179.13952066980434,-5.198359281951331
-0.096,34.78586826418104,-132.2132310830759,7.9298565189575045,15.777369294729246,-38.52964112052379,3.287479617403338,-1.0855039192309561,34.85837172938487,63.06040307171048,265.73399487237504,8.404973510871779
-0.088,20.210948041553358,-70.58241757869635,-4.127772570617021,3.273720391637518,-50.49619441625707,-2.8874349218189073,-2.577225480994895,23.656638705286774,25.79888486750951,301.0892003929684,20.552038281126194
-0.08,22.520515523992774,-46.252143254106265,0.8280775079126361,10.708059095066135,-54.43542371367548,-0.6913124900465688,0.100928333098462,20.637922165474475,-7.82972591170587,303.62843734958744,22.22661435934749
-0.072,25.062274293593227,-34.51737259507088,9.896983294716676,35.40493624886941,-41.33491431991941,2.1505088728035573,-0.6328463748093853,19.60488081056953,-37.291823546537664,244.98298205245652,8.221193024403446
-0.064,-9.056061610739178,9.5364525153406,4.229591831253135,52.98536847052973,-6.761870521293459,-0.8116846150614887,-2.175011872924495,-0.7353086275642828,-48.843530953563786,110.4020416748854,-19.35402849983503
-0.056,-34.824259918745184,37.28118934486737,-3.045574444019237,47.58792124073641,23.187618868080424,1.809256770387357,5.786374624144127,-20.937066976791282,-51.833653047810124,-8.405059429811596,-44.36892652286992
-0.048,-9.173924496103172,30.734549385209817,-3.2740637585513506,40.57690723766583,26.515027805573375,9.911697887186296,14.659969339429274,-18.91420294658497,-73.98966524339981,-37.2239429420442,-53.925229269761
-0.04,8.112391785120062,63.15860378685277,-12.409837854386929,56.81606407475121,18.746135523359218,7.824642220575942,13.12174451921755,-19.568152645837845,-105.44699367532836,-25.304003939675884,-52.081553994952955
-0.032,-16.581905952359094,139.62531895912016,-26.365934033942953,83.06494571415793,14.94369452545226,-0.6603073190496516,10.901534924019595,-34.7595469160311,-128.6581230221786,-28.696080940899968,-43.20453737235074
-0.024,-29.36204749023662,191.5518390843056,-26.648946656335227,93.16938437124473,8.230677286316967,-0.4409134237234987,16.439798175352294,-38.26372275447374,-155.59860207476473,-35.51276333217651,-28.245211344884133
-0.016,-25.134263725653398,223.782866243418,-23.16660209936915,93.90441398164342,3.3173008001704964,1.9916418280422383,19.620972891846204,-30.978452459584325,-181.07936288780837,-55.78156076679221,-16.417248064042397
-0.008,-49.35037116326422,272.7027335690641,-30.316876894410864,109.56728502934322,13.733598380111468,-4.6992413382683305,14.269251407028746,-35.87126166167976,-174.43575356904302,-121.37282089627475,-14.488953397018516
0.0,-81.95487950148092,306.7873737466877,-37.22974718524743,132.90814334466384,29.468725566806192,-11.72676921012033,8.925322673522892,-43.815196721768544,-138.22172131622753,-188.18301858246815,-20.483036984019318
0.008,-78.43833117884202,299.4689059096882,-35.28717218733637,141.0724953487833,34.126312186960604,-9.951929817163322,8.132254470186073,-37.86490536922443,-107.50600774917422,-194.89500391771512,-34.22647682172679
0.016,-56.20329698553758,277.19582367644267,-32.17359323237353,144.39545027691267,32.65171435787474,-6.6723127758301155,5.999240420598351,-27.326865351688497,-95.07618897018614,-166.63424049055135,-51.02593839770605
0.024,-50.54913557182267,247.46908149609177,-34.15318911799094,157.63347512585284,32.92674563859649,-9.606690615538001,-0.5812393528408198,-23.36994640604668,-88.89395848946094,-126.30839418215328,-60.42610895479635
0.032,-56.751238077795826,197.26048728153694,-39.19078856133643,164.07590362373412,29.346050391421315,-14.625329509017654,-6.463961602557727,-22.920956786884695,-88.83649283178735,-37.728507275113614,-63.74281069941361
0.04,-53.3453019406724,149.80434997307202,-38.96946203481367,159.25824908633308,19.860089019013458,-13.990081365718279,-6.219900335801084,-18.375446149367882,-101.52351309094604,67.22215826741976,-66.7826081470587
0.048,-46.04492259041225,140.32779141414036,-31.257500079235072,156.98773498223275,14.050581558450192,-9.172908429358065,-2.567029889859166,-7.870764826655414,-111.86680314399132,97.66229607292927,-65.83928535368085
0.056,-59.582422005345855,167.70951736373763,-29.56888611809865,145.58321190415577,17.960712056971733,-9.594155984772733,-3.325638494295977,-3.674671429657923,-100.99349229888757,61.503170108920514,-63.38024424653752
0.064,-84.41852200646085,201.4570749108462,-38.18995879505115,124.3168433530576,27.233872530793196,-15.99960633537771,-9.285445384393057,-14.39553548077167,-82.81424680569862,21.533625978321396,-69.0073679987386
0.072,-83.50249500401205,209.677640577178,-40.610464077735934,125.90123940929261,36.15091138348687,-18.328654747355703,-12.989849918885719,-24.932998816956584,-85.05483153576067,-25.83406484717308,-76.69315926794378
0.08,-64.18634015812358,187.0859232922828,-33.98778279402829,143.79269146793004,42.798063967935896,-15.136370181200954,-11.445281805300848,-24.707625046460826,-106.03640281827239,-81.17577122078055,-73.17572804317084
0.088,-66.00416849339058,165.06670508025863,-33.592401179672414,143.73439243460197,46.26651578221871,-14.565389664693525,-8.327103019144863,-25.774800621042743,-126.81983621171997,-100.87507160650775,-61.25327061213513
0.096,-84.1129454624817,171.35313299260588,-38.31918771841171,139.67357023300062,45.744456261262286,-15.439620633781658,-3.0073707721905603,-31.003485561750992,-146.4856053990118,-94.69495575342226,-48.894021986846425
0.104,-86.93398565631344,193.35163538527763,-37.26505697432423,147.71387242466625,41.69148146120562,-12.04006974529177,5.843088383444785,-30.684963913792377,-166.79596081176487,-110.13484894207889,-34.32377567579756
0.112,-78.20149402835686,210.09971362069905,-35.92558024820187,146.9984852764722,37.09429868860626,-10.663821644372032,8.43426702683325,-29.493360911850754,-170.8934313761295,-135.88829275565817,-22.049578654313773
0.12,-80.56487864534023,225.35403980660553,-40.87150800390577,142.297385453459,37.79847527235326,-16.52580664421658,-0.4637081818673192,-33.58045637377956,-155.78908641733935,-141.36998601163197,-26.206303283043432
0.128,-91.63757879427978,238.03502166212147,-44.083558687648924,144.3919088168427,43.99302499289785,-19.21262336615611,-5.0826143874861005,-34.542976826540944,-148.22151569486064,-140.6587404926893,-40.56437172446791
0.136,-88.24614567794801,233.18680014486435,-40.64167117556248,129.32169624791723,44.941896888659144,-13.168895503234905,2.4775077219672212,-30.171970439723165,-159.1576407618564,-145.7738538638544,-42.262958235315814
0.144,-67.81642925332952,224.25303953129577,-37.12355876178466,114.97396799159368,37.37087408055962,-10.440435370478772,4.221515615556576,-29.534351471465705,-166.45391951766027,-144.03767210344623,-34.13523384585765
0.152,-61.65517164645449,233.12180131960764,-37.48733124519953,142.7611352627641,34.0399148718226,-16.38537223631866,-5.201220589765148,-33.94664295100094,-153.18345284627523,-141.2566063633685,-33.604401082576686
0.16,-75.39604530521206,234.45235401747453,-37.97352390757363,166.2986145602786,36.58339115638973,-20.575323732230043,-9.219516663601274,-35.46516916199153,-121.60446754011325,-145.87580235094242,-32.39897898864064
0.168,-68.70302606012439,204.06220428941,-35.80441842928623,135.92200219742492,31.55643312141669,-19.26895079765706,-9.026798572738054,-28.589990909942983,-79.02433180995968,-135.19669904972915,-24.49421926099605
0.176,-42.498823633015284,173.228501132831,-32.14619044418731,106.36189154137759,22.469032166579268,-16.81794783555622,-12.645800091076607,-16.353850272488902,-41.42380606785301,-98.65459190233912,-29.05004423923541
0.184,-43.80132701783384,159.94015860354574,-28.15863424863119,114.52294014753723,21.4603056741969,-12.218124490671926,-8.159256452598582,-7.492276720673608,-30.695089271641407,-57.038987878937256,-40.98270639909218
0.192,-60.245366400734476,138.8190459398636,-25.432859796188175,114.76065657249605,19.94122996430082,-8.94987568234543,0.12181113900142355,-5.6768777596448095,-47.312658977933296,-15.846391939632595,-34.80824177950316
0.2,-46.65620039824989,113.75106974246467,-24.335876931603547,93.83967864521676,10.970259188037645,-13.159148524456437,-8.513480583090239,-6.163473021251642,-63.426399504892615,20.599288141173666,-24.35486291128653
0.208,-23.049116436229824,107.8967983497224,-18.797164842434192,75.1439243282994,7.947938578502095,-13.902636280089554,-17.363648432067183,-4.38692827493581,-57.89014209723207,14.296752874050647,-30.63594109326324
0.216,-22.501334061084624,107.62352595858597,-7.001084481791988,52.92285149719104,15.103656191289481,-3.025773338244172,-4.570410035802255,-1.1140948258633165,-44.434117180261104,-44.53957454497624,-33.94712315886178
0.224,-29.92147853559987,105.28715662427415,-1.359172931871197,39.52373690825309,22.51546297096019,1.7303255474327972,3.33382950994391,-1.2394938606887969,-45.53137053730702,-104.47739498831436,-25.19404768969568
0.232,-34.55073043784376,114.01762502829082,-7.073477806232218,57.794016713123284,28.191100955541827,-7.7315408966065835,-9.615545089373496,-6.880056240646544,-51.49354046398355,-132.0893758402711,-23.273700140986467
0.24,-39.71950001231091,111.62907735978456,-10.90826520249563,66.94254408774452,31.522334236925456,-11.588787949872486,-13.814889499804668,-10.855679812085897,-38.64621351174243,-139.16532439646218,-24.938352490451727
0.248,-35.22014604290654,78.31570639000427,-8.995043369077639,40.669928812832474,30.15891602145468,-4.753468835272672,-3.343215523624093,-7.950082861206618,-18.795430832379026,-130.53045396851826,-22.019240587095098
0.256,-27.620584082118153,49.1119708040773,-12.155567049714602,34.800221649315375,30.54971038555165,-3.9344731134120954,-2.490299849229633,-5.96011056170875,-25.25718680870817,-108.70378119084904,-24.959453314016766
0.264,-35.36003592750734,48.158368802905606,-19.980257484376885,58.39036240935241,33.1997592612845,-9.231211662297849,-6.081517488151506,-11.562148000010858,-50.96800406300469,-97.16409081515185,-23.334886912344203
0.272,-44.534775921561966,60.22115981618495,-23.868176618960483,44.16959466597082,29.258813225729472,-8.407618179355303,1.4848207528403807,-18.17612289022479,-56.70156382296881,-108.05593667616102,-5.99781382547784
0.28,-32.41211204640926,82.05289147229404,-21.896391651061364,5.980720439054164,22.304363473951597,-2.2935124345476163,9.282203687110869,-16.848032636051517,-43.27320905126223,-127.74318432085609,-0.9162143688145893
0.288,-10.56201704210957,106.48395834363909,-14.663283564798624,17.882603676161498,19.71468993368752,2.4662231449727736,9.185494048731515,-10.049773993877519,-41.64947134685146,-137.5731168702297,-15.395421558349824
0.296,-9.029163622213005,105.43659935836827,-8.431713085891294,54.42315764226784,18.144104447521272,2.1844978678470635,7.429880970700766,-9.187347895887996,-42.07225549279348,-124.75468474849988,-17.170873845349657
0.304,-28.03807708570044,83.83044071031792,-11.331833271581637,50.960775552930414,18.056263014089748,-3.681568237310136,2.860239265823605,-15.049755918641262,-26.685388856662406,-98.95871255881028,-8.943552889227632
0.312,-29.175168322800086,71.5373648444124,-14.909026835365152,31.416851139787745,20.189573789868668,-7.891590042933342,-5.365385214304508,-13.805023032935486,-23.822467174942282,-85.02158281539768,-14.79792718539284
0.32,-4.483060970498606,71.04226811909672,-9.580294703000865,31.20218932374152,15.783712571558056,-7.074483233857037,-11.469525061643516,-4.830678614112647,-38.33817535232838,-78.85318847382382,-19.774097870014398
0.328,-0.2350259363810847,75.71913147899834,-4.928825994712211,28.474204644748063,7.11334260351778,-8.458696648515703,-14.901189125137867,-2.02102893147543,-29.593455312528956,-62.68271844582339,-9.981870053973369
0.336,-21.543655392928848,83.2653458027683,-5.72831398708247,11.914326269248036,5.143284167248061,-9.574844836763415,-13.05636439204929,-2.019835920719044,-6.959790506456442,-49.58323369369303,-2.8640346710062596
0.344,-22.922000523109503,77.91431503705672,-4.9332646609566515,-8.303263982550112,6.066588930078478,-3.4705555750849015,-3.814893744797687,3.5646004357773564,-10.380100338442563,-50.559563144880805,-3.173968503906107
0.352,-11.530771172896664,59.47957981314753,-6.306272324683233,-30.042335698024516,6.519156767098936,-1.3546838122614817,-1.988868471446785,3.4356928190811664,-21.817201046786966,-53.39677919506682,-3.4857284441485827
0.36,-17.846689674669655,48.36645518875763,-10.537426200803596,-38.29579141821023,12.772771295932666,-8.746222154951646,-13.448533650561695,-3.7327373308593312,-16.23686805825683,-60.49692526617942,-8.865160500748575
0.368,-19.679094245032555,39.776604862746204,-5.666644416519011,-29.927646258711714,17.584430265671095,-9.311612323257945,-17.213180760088242,-2.2396562135775664,-8.978156449343597,-69.83368995462855,-15.436696321003918
0.376,-7.711882643258413,24.040265216055513,2.060775790067497,-32.22322024323349,11.693403021971692,-3.144433635660989,-10.178725141285138,2.1744321735367746,-4.029273477616317,-57.301831052812055,-11.231290639199157
0.384,-6.804578840822368,20.720260888692668,-2.157748799371292,-39.721288262721366,5.335637661805497,-7.249969191007795,-13.902731344457269,-3.2804394090664184,-0.9388003775047818,-35.22651294870583,-2.651231656254069
0.392,-6.392026499252427,31.085045697966336,-6.324540388215601,-28.447306923192535,3.650110698430893,-12.816532437935198,-20.973343837173783,-6.593506050271439,-11.447759987540206,-32.406803602467114,1.0893500739403792
0.4,3.5010591401166615,26.992222422596097,1.9014314360377025,-19.53615525564779,-2.021399234257078,-4.59511257223715,-9.9719264516718,-1.1079501187360759,-15.184676545034376,-22.559209700429975,4.566460519939287
0.408,-2.3315936823689873,8.804972914301144,8.40169715936465,-23.030038143147177,-8.084866886029454,2.038099954280009,1.5183226980685316,0.3163020614100677,4.538367227414293,13.030203130742398,9.008421197002825
0.416,-12.151400252044278,-3.5559120615136237,6.615542429364143,-8.758692859850676,-6.744168275310365,-4.000583236721084,-6.413463321897528,-1.0821011131994114,13.285099751746197,31.814235067105102,9.524616739679857
0.424,4.22459350495403,-14.071419052913553,8.055033492304563,13.99909130728282,-5.045567520575426,-5.691735093513664,-12.732758086045227,4.743755614170543,-0.4763955375094501,22.31329222081346,6.950743341969402
0.432,17.93277953279427,-27.76027853410841,11.628743304517755,11.765224694905884,-7.207907984857685,2.8128364166464417,-1.3860752528021691,10.098854724335105,-2.6477045507910777,25.827948124488277,5.25557638480787
0.44,1.5691813904085679,-33.635902412571056,9.474410312674475,0.608343830550882,-7.495385719078437,8.026280629909472,11.715966947733671,7.991461804156346,10.161074047574827,43.78641915536171,7.534744935190861
0.448,-8.436435169953645,-33.65960938309642,7.2215532450667625,9.46613900551695,-6.9185303742963145,7.655164402477498,14.448438158517966,8.795077661919521,17.899653792082674,45.7239042448641,12.411150307445197
0.456,12.647545595442569,-40.42153974231415,8.318330703501044,29.622009852961366,-8.485667937834611,6.673006448023617,8.75879669148588,16.37406444035212,24.308472670954412,39.334516972279744,9.772467722496561
0.464,29.025112297956568,-51.947606535282404,4.559666093681907,34.48212525363557,-7.332585891825083,3.2389610341721506,-0.14215653402129164,15.410446338653276,35.543257969204646,48.11809366989398,-3.836152126378445
0.472,11.205874105826886,-58.669500125786165,-5.9786154544624415,13.392927059606317,-1.8709243983575943,-1.729766523592232,-2.8789729675502276,-1.6467558326820013,46.126396491777335,65.25292061922224,-14.239023339568092
0.48,-13.127247031281652,-59.057175171020766,-13.077490582647455,-6.865882002538587,2.011584904450689,-2.6727655335350127,2.787131359187314,-14.479772745789163,49.46354473510101,69.09988825884928,-12.075702691285269
0.488,-7.4854661978826025,-59.53258399841187,-8.43096367108682,-1.3703429920823633,0.1080432752468195,2.9244773034216225,10.673426713567716,-5.868459479080959,40.10004361195002,58.332923733454166,-4.632786440008199
0.496,12.983360105661223,-66.55010089262981,2.9452792739850224,0.0011345022008966109,-6.129905183795454,12.711449915287426,21.107527262920858,4.815346796606396,30.009518120462886,52.85263696700534,1.560719141760805
