time,C3,C4,Cz,FC1,FC2,FC5,FC6,CP1,CP2,CP5,CP6
-0.2,-26.710505965740047,77.66445043693788,-17.50010993716372,7.22093238849149,14.561974741515195,-9.381531933847535,-12.21899683640149,-3.4393389059639077,-24.544429968860214,-21.84281995121515,-29.619844331756273
-0.192,-18.195653065229816,78.11094832609096,-12.912368668994713,0.2774849033563301,10.691254813131064,-6.874302937234088,-11.229352099707219,0.23577266578588116,-17.11174626710854,-18.500143525482905,-29.48748353796034
-0.184,-28.129736657617862,69.0540397835715,-11.741334008064895,-6.821766733937945,10.508697010712012,-0.7600493829746182,1.4613716736818667,-0.25774304517631275,-18.995946733459807,-8.371338147087382,-25.53444061212496
-0.176,-33.34932173003983,52.4790232486629,-12.381450461859714,1.1438566739470575,9.943898426350186,-2.162962289005056,1.9378287151007922,-3.3382441872729722,-10.480120644339653,1.4733780648008825,-19.529611944163545
-0.168,-14.61598364559281,36.14988606241176,-7.15838760703268,14.235828120527517,4.491961570808444,-6.788417796736348,-8.941243607731973,-2.2843246978889233,-4.683451913762517,-0.1314661879248598,-10.819388698205362
-0.16,0.017631083021903256,25.22384843263031,-4.236637514736869,25.407927793213027,1.6330966940445775,-7.782991384328774,-12.400300902157714,-1.8471327532363258,-14.945059725481132,-4.540920772927924,-5.029030849744768
-0.152,-11.283124097959522,20.22003566352663,-7.4433421409245,30.666441487139654,4.442718168767158,-5.986682642800095,-5.948760219847212,-4.684071710063273,-9.603680935679108,2.966117910568633,-7.088895581003106
-0.144,-11.779362263874562,16.593215913999558,-1.2663551943550526,20.98035804220542,3.2250838720017736,1.547295465321338,3.5705518789167,0.29668304931107864,12.759330890935132,11.834978113876291,-13.286613336297597
-0.136,11.78380186813036,11.414519329909902,8.433732098048074,7.977580552181336,-2.185661954036481,10.671996989544507,11.280907955017845,8.470043680560416,12.47236720023111,8.857172273227164,-15.772990460473693
-0.128,9.706922741665146,6.439011805195958,-1.6890972340818704,7.891579761097586,-1.0599215461352176,7.843310273934989,12.304984788652922,0.8349616454519185,4.053627987607055,6.436965045627397,-10.460937042380085
-0.12,-17.394517184734738,-1.270947903452345,-17.17388313987166,7.259347394341903,4.320660122889598,-2.4397528699015405,6.060181228772704,-11.897561653719155,21.313948654271083,13.156469414551658,-4.519056268308252
-0.112,-12.82482000054298,-14.321109024701492,-10.7578022991066,-1.4142176388736287,5.076382630290061,-5.71664705211216,-5.082152525469237,-5.419321565618678,33.78591532174493,16.147861397958625,-8.708942206524256
-0.104,9.50885625148049,-22.586898023388272,3.196348408222662,0.3433109290607711,4.321553897794071,-4.073565469825616,-13.937161700294947,8.89888483769442,19.050251406438043,10.418011959369307,-15.779386927984275
-0.096,1.9560683025237453,-19.945479876730914,5.2976045645975525,11.104014186265845,4.711667519030564,-1.932948481561951,-8.269264685661987,8.603237984865354,10.67039572880572,4.985321422794723,-9.51626519197568
-0.088,-8.589247659538529,-18.851265199563745,5.7470630139090435,10.571708485756869,1.120591421839314,1.9641744514867316,4.00649158667253,0.24415691356560032,14.083177524571717,2.3012041560441108,4.785046119898223
-0.08,7.563295391074016,-26.884938784526504,8.081680596871117,-1.7010504453131754,-4.1214204988193055,0.6208781955088458,-0.1576901395047733,-4.08754028211802,3.0005992517602116,-0.036349234204608914,11.852007341082818
-0.072,17.816916626624064,-32.64726000021645,3.6999476469602652,-15.80218819780464,-5.074000717126287,-6.4118552031501945,-12.786940933123665,-6.5516689883464,-10.33952879906443,-0.18347333732787902,13.803930958828143
-0.064,9.716584743105702,-29.18466888341871,0.5279689649525846,-22.736311526565522,-4.782723279035789,-5.5584669597603344,-8.78730000121675,-6.5997042891341495,-7.840132773605878,2.4952138077455746,16.134130788281347
-0.056,8.61269414220735,-26.35863491741659,5.908076355895451,-12.589526778720275,-5.366290077563798,2.662766775409135,3.927644507162754,-1.4234567454067073,-9.543311190066643,3.4123287928447117,15.147463548694034
-0.048,14.804161107511998,-31.22261188290437,9.348431957379274,2.2426635532067354,-4.117022084514565,5.883913210428953,7.253151550480349,3.2578816732365854,-23.091892332346657,-1.0475816331834975,13.538720904965228
-0.04,18.066395698165216,-36.1771250862133,8.081689373729885,-0.2843189291688132,-4.482443947426595,6.61729111103403,9.008602519729997,3.8808083020550215,-24.559930534064346,-5.57821338888341,16.827029069056398
-0.032,20.96779530004539,-33.14819416261453,11.150576264452777,-8.917984692587835,-9.210035218862703,10.590233966497815,14.940995628346656,5.376929549904099,-8.607874412994182,-1.8015350190012736,20.195181090786253
-0.024,16.37470550952105,-25.598172530686746,14.918805348270416,-5.287375980645271,-11.221183431282002,10.532076570733883,13.771613459359788,8.603311523923363,6.659230290359202,5.493147251943348,19.87394835922484
-0.016,5.349955972637174,-21.778907523545055,10.152211855848318,-5.154524535538646,-8.142247985835159,4.1477588961143255,5.67649831949572,6.51559459057226,13.874181896274687,2.9707382832046427,20.27717145433612
-0.008,8.733080510091712,-24.677675188900817,3.794202477062294,-23.839681498342078,-7.981292362555823,0.6648140189671937,2.1916310324870247,-0.9040782549261903,15.913673620764124,-9.820462308027858,24.354952077170605
0.0,21.893407023065354,-28.695090014657513,5.922429279992569,-42.77408731329368,-11.305297785980285,2.1236644782565866,2.36670880723928,-2.484079338054967,16.710406457069972,-21.094604389290303,28.363305276578142
0.008,21.35515013228466,-26.237739783454053,10.46742776620836,-43.09535584177759,-10.114208047077783,3.640432221114438,1.6994018912748914,4.112047393982649,23.68605490542619,-24.076894161177155,24.21667727016635
0.016,16.022596003623505,-22.87382679537025,9.628121531603894,-39.37128463646789,-6.633393165303917,8.273429300813259,9.152075355534823,7.208322878061222,34.82342455382497,-20.767110446116654,13.686799348491455
0.024,20.293344646483803,-30.196945547962518,7.948168362535389,-51.32129932936691,-8.46962277651271,16.52007106355653,24.391227763455134,3.245658221677216,40.60455805421801,-15.713106285922246,12.215602168615286
0.032,16.482485938292612,-40.85462627718024,9.64205423221649,-62.33206377588831,-9.832269716027666,15.638630879880582,23.640849980745738,0.9560404303165885,49.319630029861436,-12.26155938447859,18.053240530949417
0.04,4.60454697353906,-44.35185716237163,13.620503127518964,-52.48080497593856,-4.722438727503201,5.949463450597297,4.687392583520485,4.680598343554132,69.6039206231289,-11.060193275043282,11.950517281386642
0.048,14.526419702424358,-51.49204736201395,20.218540599632256,-48.073394716424154,-4.148005638609291,7.689000680773077,1.8236677564278554,10.401797014734441,81.74798574468156,-10.446032715353754,2.760192393530019
0.056,35.21230093917023,-61.35079035110945,25.619059481425754,-70.38085579194248,-13.17762889512389,19.571715124387364,19.465198187488006,11.20376243547331,75.50787336747078,-9.116992585121315,11.666803579197609
0.064,32.40309889194761,-52.0750604123437,25.02200394786504,-86.38388704110204,-18.247076853987497,18.92815444403882,20.614920102162092,7.629752239544688,73.79508356109957,-7.6255686298764385,22.266745061500817
0.072,25.253998594240493,-34.41125831591311,23.84217291066425,-77.58048255524255,-16.499691689230005,9.66255510776694,3.6257955181066346,11.867157031098898,84.9963467050896,-3.4239210302828638,16.16192897356558
0.08,37.24688111471065,-40.5924818891533,23.794905344482647,-73.75234111612332,-18.810884932181594,11.331014376661141,3.1641553260907256,22.48280043793748,94.33026746558075,8.93979912595318,12.039199457716325
0.088,38.40049087495573,-63.51329990503927,18.041160946959003,-84.41929514840794,-21.575347849763062,18.154576457988757,19.433295655366,19.94237437405575,100.2325581748635,21.73217084702335,20.10525669932432
0.096,20.86263913355765,-78.06430085020958,13.375594768797209,-94.38235676503804,-17.48715891538525,19.227536222163682,27.932888594285043,8.625780984794009,100.18615126580995,16.987481405624543,26.58066414001654
0.104,16.236641137696186,-76.62900645080309,17.64685489253986,-108.29403434441697,-14.855343565675355,19.005000732916503,26.131009235203443,9.165259656009512,85.98519434045652,-1.8596321385473793,30.507476565871258
0.112,14.981379111104486,-51.823993349880354,17.312068037639744,-121.6567614293436,-16.32519196642008,15.824395273466159,19.95348804575705,10.620264798442017,79.87421393897097,-14.33083396880008,33.077467569474145
0.12,1.7371918236669095,-17.89155011763104,9.943757911850847,-115.22015244868922,-15.234345822799803,9.135485222946388,13.10408952023566,0.13091033096635182,98.2791863438652,-18.64600457946771,27.315111582302023
0.128,9.332918982242646,-17.71407346521702,14.070640081290813,-108.5812159088039,-17.05525219694491,12.304491021094998,16.627048890238708,-1.2455094414647747,106.73171782726281,-23.503100024242702,25.66656227370928
0.136,31.920028670161315,-47.6984494770578,22.873539310423737,-126.24434405375312,-23.1089059297197,21.01429724423255,26.165280918385548,9.187336328684356,90.8844624857075,-26.42783372371347,38.453888534485756
0.144,19.839387696035267,-65.40556537735758,16.167679679466364,-139.84552385690864,-19.431644312349285,15.903291771560827,22.27106981028775,5.623036824109025,86.52114828533489,-27.647446333784984,46.66011433109148
0.152,-0.5043784252837854,-72.66382828705048,9.59045497707791,-133.10279683556422,-11.920504956061544,7.642338852331355,13.50298302231217,-1.658602988042925,92.17879800359921,-29.983782422737136,45.81899530544047
0.16,24.612218488474458,-78.15049945096591,22.392720980066446,-134.91843401869528,-22.458308807341883,17.327449092102153,22.772094887545805,14.085791514526795,82.89072625368435,-28.967347347345015,57.68399866349744
0.168,51.780984427643,-59.454536688663296,36.85626941433227,-131.2193463352231,-41.86812510572931,28.58747062547657,35.814160887358355,33.23537334405032,95.7417855471592,-27.176928293504172,79.85103360532239
0.176,31.926322338402098,-42.955281586691314,38.606207197485666,-84.2820547694427,-44.39769804693229,19.898950269395677,26.183159612158523,30.94706741298462,152.45494256528428,-25.392874474826424,88.19360168480337
0.184,12.425899614699867,-75.07051983104391,38.39105111536733,-40.88161573940799,-33.173345113241204,8.246152944983372,8.541263063420239,24.699532743058594,182.11742068681326,-13.461009305068309,76.56992291079858
0.192,27.162926679358236,-118.7804046106156,37.737350355380904,-56.21567952346327,-24.559974455560784,11.938401529485612,8.976878845982679,27.501657259581897,153.08650017015918,-1.10784854221171,57.23347200806201
0.2,39.17410431479774,-133.95836437972625,31.50975410638305,-81.04563156235989,-21.256705579107138,16.735530016794772,15.471073591166308,27.28884263715167,135.63640219710226,2.573230586055623,46.1858614689629
0.208,42.822024122265496,-149.0773056507253,29.444211646301387,-68.17517523370742,-25.210982517301122,12.211927536544168,8.733814328522737,27.77555361152612,149.50835191780598,31.415027895914523,47.93102474524845
0.216,63.26522373518244,-155.13594959825275,33.92806087055047,-51.21437916565443,-39.01133988643378,11.133127086125613,2.1006227773971853,39.12860054937229,131.5213168582196,100.43544054170725,48.54556959920812
0.224,78.27982699363781,-115.8792250032636,31.91283465764342,-44.23595991078591,-53.173803494097086,15.254290206353987,7.335476368429963,45.60779035114619,76.05517651996972,163.0184989000108,44.80785819937889
0.232,66.23389166046219,-76.15143432784303,24.155406550324734,-32.56644705175398,-57.6293322749,12.268779578015398,9.305252559232077,33.50153882356024,31.07837816870672,185.78059044965818,48.585460748649545
0.24,50.937443574623344,-72.34525696335298,21.234569154340168,-34.53368667745647,-50.71703394266617,6.476328315539595,3.9130449359333705,15.364407965021663,-2.871194752541493,172.1356794265062,48.03496703775453
0.248,41.61281530889548,-60.53858361547155,21.030851564427724,-40.96694358863579,-33.296192282127016,8.169782087529839,4.992223194523247,4.267572006750132,-38.38398619831308,121.4543970936708,26.685370902059447
0.256,29.566915295807785,-42.41242202014453,20.56046305893765,-15.923159203179187,-13.870937267323459,11.378237978869114,9.888950066781696,-0.0049727438433101005,-56.870736312624764,56.50583537712502,6.415725642653828
0.264,25.783158185463197,-54.40567267167316,19.679105170681822,8.027023322588358,-5.185293793929718,11.53817117770147,12.149094535836488,-3.088996940223598,-64.37575382557188,25.139231269224155,6.050388632424331
0.272,30.064028365901834,-44.840380338466225,8.669291966053562,-4.262488451003048,-6.146488024999974,13.784376455141551,20.776791953018623,-12.159708212270115,-89.20518956347513,24.646904902847492,6.903179639119985
0.28,26.390955392685296,25.491877097468084,-10.042792520425591,-8.49234624872505,-8.457665645020553,15.134475870212178,31.404495224902345,-24.48499630432112,-123.29161235108819,14.252140163500323,2.50214426373777
0.288,17.138665901256196,89.40563985932815,-15.097130895769583,13.872276261821645,-12.835910721945888,10.389196500435226,28.639952593805546,-28.986431258798568,-143.49519526365637,-2.6517689844623233,11.00015083758709
0.296,8.792464132963884,114.26510021351358,-6.3761440202759205,24.221810879032123,-19.98467088277807,5.945714751998481,21.084692986892268,-26.63122523549712,-148.91567636119558,-2.078640743713215,26.898433150522724
0.304,2.8906929681406073,142.3079862365294,-2.964982776660161,29.54276359779485,-22.978128595630483,5.882521499500642,20.660949356347775,-24.724567179341093,-141.57925186984505,-5.896708980544082,28.643019866021323
0.312,0.6087540380005043,170.66255699004537,-4.298957074341673,51.24630058824224,-17.92755248513098,4.247433530199734,17.05282751360133,-22.943332552076804,-119.36231302659517,-35.650833438258765,17.952454339633565
0.32,-9.970929357299262,170.74789523816014,-1.7446472577835022,57.31802851266593,-9.893810143475035,1.2560015169090097,9.848515733778754,-20.664096409248902,-88.67376555971674,-53.70390397285918,6.7678669471175885
0.328,-21.67882569134542,154.12609999990923,1.2513695489680414,38.61400397497935,-7.189074755895408,4.649485187500767,13.281643216433698,-14.560570722496076,-57.30848128226862,-30.87357738338755,-3.5904082782590008
0.336,-5.365948763564661,125.0096879091354,3.648822769070168,31.899512243459693,-11.023121617294386,10.988243794128625,18.570919816545658,-1.0245505758851192,-30.636721341819566,2.8346183813276626,-12.283442616051792
0.344,16.866800270734384,77.80856624255364,3.2896197447250266,35.309467227345614,-13.38475221186404,7.665744516913539,8.24574565279466,7.466123637731796,-17.081534200804423,35.7261956788677,-16.822463961601645
0.352,5.252327108156622,37.86141514979963,-7.4265136842278405,26.759182774655137,-10.465331266787416,-4.297779021378024,-8.135402005892265,5.031006989775794,-20.320187177796534,88.97924577687819,-19.58435996908884
0.36,-14.08179606349857,23.04052305068106,-19.22531359497214,26.401422873695424,-6.004379670794141,-11.747495542442046,-15.798344344837462,9.193430728523156,-27.38276695253542,129.97795491665806,-23.30188280363204
0.368,-14.468624878680048,24.243895217229554,-16.672683725413524,44.26352987885995,-0.523860306829263,-10.871266261692952,-17.087327999761765,19.862415645469824,-15.999605541460447,109.83453246533726,-28.793878765692817
0.376,-15.817179029109775,33.75227632701428,-7.4075098624971405,45.39330227430035,4.8413339863541704,-6.709453861778183,-13.506553098251947,17.185333148729246,14.783109489234178,59.44923768199113,-33.59905524904396
0.384,-21.391268472389303,35.51894564674826,-6.7356576219409074,20.803387314895954,7.098819984779362,-4.361600953880175,-7.7436692428867415,4.7219523067691656,36.241305041311364,29.21677689390118,-31.951175432412743
0.392,-28.565543571644564,15.375436906204047,-15.210698219046842,2.727073612549212,13.207330489709335,-9.869233445231803,-12.227737512054,-6.043646971100474,34.603784901550895,12.154923630866357,-27.50284765480042
0.4,-47.393550790779095,-8.501986313512145,-23.93545466196502,-2.9197970836457476,25.983677720980225,-19.39376401163602,-22.829299650043925,-18.165835816087416,28.563621964587423,-7.74375883416326,-28.630270992932694
0.408,-52.10999355113874,-21.753827893498052,-24.00231625007611,-14.322089715952885,30.639981578847205,-19.729188014897584,-22.13902161725806,-24.716763657169285,22.68024326210953,-25.575159123578604,-26.42017261132744
0.416,-28.73803366210811,-33.10718376704085,-17.194125106662135,-24.631344785332576,23.906570275998412,-13.194923028478334,-14.959717773468126,-17.428973616636316,4.9083484958099834,-42.4716176045031,-11.735303889971485
0.424,-20.76363084185969,-34.3497799773336,-13.99623356073082,-22.704350839107303,21.694239221226763,-10.421168955368513,-11.670778730776451,-8.204576027381153,-8.93358470343151,-58.53171412463137,-0.3964059116434639
0.432,-32.64628772282666,-17.942157118965223,-11.654011268368109,-22.15270975098713,24.11057617804539,-5.9246871889765265,-4.166618404611649,-3.450666954903709,-0.6250803422384248,-65.82532194923242,-4.077320959338122
0.44,-19.340047967607102,-9.5995876413213,0.3281946430657652,-31.454176717645026,18.844194080931352,4.955308850461202,7.353897014759194,1.950256134762844,11.888015401380954,-67.0471880562842,-9.760447086432873
0.448,7.3111347124693005,-18.744771578720854,14.630308773466256,-40.730839883322645,11.009966950614485,13.317363028831986,13.064513208034635,4.286594274793633,18.950387738317012,-70.36341619560636,-9.88957163070188
0.456,7.453779612470431,-21.208523173818513,19.17558106039835,-41.6839343689717,9.334938142382542,15.873668184946661,16.398188824659467,4.312748262690943,36.48804042997482,-73.59772439522862,-8.15333199734133
0.464,-2.0230082920064287,-18.79640469255637,18.29989578823123,-30.125816805690448,7.517751761440436,13.360787906627525,14.705146867463325,10.906694745860687,57.03527469065806,-70.29707348935294,1.0497087898054291
0.472,6.662451114096658,-34.45868243435514,16.278307304531836,-13.916396937200611,1.7800950172845287,4.147147337447344,0.11802636770902503,18.072138260661262,67.31527965641578,-60.78704389677,17.047559946747793
0.48,21.570828931639184,-58.92415433695355,9.072786269926652,-17.735052406005586,-2.6211461144016135,-2.278658878702822,-9.430471781418097,15.657810201753088,86.33546083626892,-45.64414442095015,21.930930333632123
0.488,28.83468401722772,-74.48230496150758,2.9843471743276475,-45.23296786893522,-5.867842890006637,1.544574761118705,-2.7130705304638596,9.845662428423635,113.72212954931967,-13.890175995595538,11.02778924852303
0.496,31.63376844859285,-90.86915611193025,8.353624387434994,-69.7803554508701,-9.952693835477682,3.2987398347820975,-4.292026786474783,8.722732550870345,117.10352470532901,33.537535389933566,0.15825711128961645
