time,C3,C4,Cz,FC1,FC2,FC5,FC6,CP1,CP2,CP5,CP6
-0.2,-17.347902522226406,68.88047667304782,-9.488563884424682,-9.445307093938913,4.925146578824615,0.7534285477053478,4.425137242025276,-18.07474667818479,-16.899293823098077,0.2782396474776093,-27.490716851340096
-0.192,3.9388452396153957,65.24804188671536,9.446975402911901,5.90496125054358,-4.791225538798661,10.308290882492575,12.66908340916105,1.2274441455822716,2.19577158336529,-20.32684768759186,-10.984818965593083
-0.184,16.555809065731594,49.520787892027435,11.235959741172415,-0.909978902425665,-7.180164726521289,12.135601927156797,12.883551400338733,11.717059029556331,10.11108290827182,-24.835502660968665,-5.114985614110439
-0.176,-10.563440874836079,46.27601310294308,-9.271823117786761,5.244940133044083,3.0546486044806733,-3.9988587170967396,-3.6160746065625444,-1.6330966675971679,11.160927460373463,-17.882487645538053,-8.26382936382449
-0.168,-32.29105639266564,44.51827776869602,-16.503554598081205,15.93901300639772,8.804840182541938,-9.239286472993626,-6.612377350076778,-8.462903491912973,9.833949048687828,-4.473195820027561,-11.574900860632011
-0.16,-15.049194335706568,21.834593729670317,-3.9001672108843666,0.42894911445122746,0.5449022307677264,7.515340753266319,15.423551513834996,4.093874598484739,-1.0448198710500032,20.01855444411241,-7.935058196768153
-0.152,1.5557344082770286,-1.3514112625003745,-0.8088011957078984,-16.927157269499297,-9.405542452975684,12.301034199023249,21.549956099178498,8.715434498524184,-7.613462152081303,50.44432380295502,2.1459411964876387
-0.144,-2.1624515118142216,-3.090493515040648,-6.611474981552443,-15.149801318299414,-10.774099800163341,-0.9809571333018371,1.7758189798130144,-0.8191788335143984,-5.919298451428775,69.56444389716877,3.422762618881587
-0.136,4.575653555072223,0.8385389713575628,1.1808954122241764,-11.074604208707923,-9.651110881983428,-0.1373266109467407,-2.1515532589861843,-1.9289381351665003,-21.861643028673235,69.91701413526839,-6.624402114575793
-0.128,20.32213295446269,-2.1352311830853425,13.314380441629211,-1.1593666262983786,-12.637510524798053,11.76356192949049,12.024213347337897,6.199711844469961,-43.89097781647238,64.48961616604095,-6.809371663203556
-0.12,20.491977633952974,-6.951856066520719,12.616324496927952,18.85939074039855,-15.434925569956475,9.485766752979567,9.98605799227911,10.490232389678775,-34.303724422597725,70.95233052773554,1.4441599533829026
-0.112,16.436247311227746,-16.83256749373943,11.02518600140457,23.427149928709287,-14.04513402500873,4.774467060469702,1.6062548453401093,15.07208563867163,-13.744220070709485,84.23981235110645,-2.0588879273126133
-0.104,15.421479234313457,-32.26488998038508,15.762033320204955,16.060056022376706,-12.125941555180278,10.994376351541634,10.333359115177036,19.047971070731375,-19.96720611520116,83.73933064256806,-2.3711695347744857
-0.096,-0.919270522077015,-38.738097627524084,10.873117353542069,23.22885645418941,-10.52922608721808,6.800394327598776,11.766523615781809,8.278941310535881,-33.9267069663717,69.54950830847083,16.414754465822732
-0.088,-19.738764433956888,-29.122987752080693,-5.112341723676759,28.475847186481253,-4.597458837333196,-13.21578550666953,-12.201389373287359,-11.138240651838576,-32.118454213705206,51.73000999703243,23.55356865268574
-0.08,-13.27956601214784,-12.6304706931758,-13.55852689812948,9.331372282081725,3.6064782730338174,-21.31708386146561,-27.801328581470518,-19.356177333859645,-26.03897330072807,17.549880413186646,6.399581296505813
-0.072,0.2187208646752034,2.4351308879821945,-9.198172188228623,-13.481563368952854,7.550966661710662,-10.055052030459294,-13.648973421428297,-16.537574779654364,-17.86608571898022,-40.05183462853347,0.07534222975549042
-0.064,-7.496722586547229,18.239876113862834,-3.4527445686342784,-20.837734899380287,10.371919503214013,-0.6917084691958643,2.8116463493085075,-13.260817610078387,-0.8497367558768588,-94.52030572873075,9.457939692932651
-0.056,-19.719128137526514,30.32873926049763,-3.787886459792892,-19.989066407466364,17.574371401529426,-1.1196966513342599,2.3463472753583585,-10.22609134274729,11.466882908858608,-123.78694484407264,5.559925131981724
-0.048,-11.351259042300976,18.120639916190598,-6.890158413355125,-19.287520637252502,23.02825969368956,-1.5046831401925869,-0.6822968820248674,-6.955717527897571,10.151489762102308,-131.87457492521403,-4.710859631407789
-0.04,4.2875541292165265,-15.163134437699672,-5.02046337904832,-24.2595517064731,19.868802329501445,0.44764175607934414,0.672857863057365,-4.781916248199849,9.66368586919203,-120.80295463559368,0.18331029631572782
-0.032,5.82208625286287,-30.812032854022817,2.6018531850549533,-31.467039388399417,11.618471009253824,-0.07143574897402304,-2.5519232043102464,0.9236590165814031,23.15937457694644,-87.53492344700773,8.978360956115857
-0.024,3.204821235247488,-23.841310880559913,6.431488660268294,-23.39471858736748,3.757909471024206,-2.4633584910246946,-8.443034392596227,9.927396447692919,46.45122057734315,-46.48299005509728,9.378979936229403
-0.016,9.167321164451538,-30.666223199991705,1.7072597247173469,0.5336682929406354,-0.40390756160371116,-4.8074364259144104,-10.65287410632116,10.65384199482464,61.48556771798562,-16.00843618893792,7.2016204681769755
-0.008,13.168042355106229,-52.53765780624234,-2.8031694043137607,21.72891538130814,-0.2638696141781016,-8.013612902311273,-13.688982428765286,2.728757091207658,51.4842095602181,12.969806806644739,2.7062581868968287
0.0,14.752330967592444,-70.1027514504222,0.21237428355877563,38.2202906215393,-2.866598763852856,-9.663622325923281,-18.22355144216231,4.098990224109742,28.8804407336295,63.13812712754588,-2.983504358628526
0.008,26.046942428906302,-97.92696591303798,5.957182204298242,51.48931559931061,-12.96290445520335,-5.8735081486527525,-15.873140138670378,19.316233050415203,24.63623808488737,135.84960142613502,-2.9384045055673353
0.016,35.908503042758646,-135.12777190360788,6.751225020655868,42.84874834628927,-24.23690583069628,-1.3342743370485228,-10.050373071828561,29.11077952540398,30.252795494736628,220.67826585607656,-3.270273118220243
0.024,33.47204567637596,-145.2091288187563,2.297189881021107,12.262891421349858,-33.90547343498657,-4.373042942008699,-14.495884595785446,24.593927855790884,3.8682371865723213,310.60554841299006,-8.292718893605985
0.032,30.358279249743912,-127.74202227082141,0.20553141820327966,-8.363983127930808,-44.93906048420282,-9.846597843345664,-22.599643925976633,18.986701664874218,-50.262387460523215,378.4756447443437,-4.8886965091559835
0.04,23.154110491403245,-112.08205070070004,5.1477089020476745,-9.089823497895082,-50.2194626733733,-6.004387572759483,-14.29728318071499,17.843623078664724,-86.22446449932751,387.1140269094131,7.570542578025724
0.048,5.586833246773382,-97.98400951964904,8.65526493921301,-6.383280230148688,-40.86342735440421,-0.0584528778784007,-1.7350884935406168,12.22317558859051,-97.51432007222901,335.7859141156525,9.437431325477124
0.056,0.7203792161504312,-79.26289121250989,4.817887740215297,2.3515472469239724,-22.16371007520546,-5.109172216135986,-10.721006044003236,2.7744832310740164,-107.48664374532743,250.1709293039233,-4.893881352567889
0.064,9.740657025967586,-67.36659395898356,3.275158943013553,21.784230659945923,-3.71523351463622,-9.482519881871774,-21.57726778845651,-2.1630192908031947,-112.23157792501651,152.74522175317264,-20.124998574731663
0.072,0.4935966351590029,-53.472540686153046,1.8453820157764547,31.270929450892158,10.76001764277218,-4.521132792320513,-11.299571691070279,-8.077559000482534,-102.81820072812557,74.34135972400111,-26.725020471800327
0.08,-22.702611479168894,-11.584664206818353,-15.824625400104026,24.691937319259893,19.25224999602327,-8.869298194543068,-8.997439979502145,-23.25587192932326,-88.55810352030201,39.707545421420164,-33.50920133181565
0.088,-33.3839865057503,54.34160204362835,-35.1199774482944,18.508227774082982,20.821739238081733,-19.26386637506242,-20.130261048708604,-36.08118307790688,-74.29476622708384,28.018994031463993,-46.615060228344895
0.096,-39.831661166159066,112.00173377061125,-30.180781032328166,11.37588949624579,17.631476191721305,-8.936174477563814,-3.0594701704776415,-33.48190729052063,-68.16034901585739,-5.106421401170396,-45.542820395439875
0.104,-52.74337019057755,145.00535771625977,-21.706128988257518,3.050552166535075,14.48599654234579,5.329654491410722,24.89877908725616,-25.220002141269852,-75.6582981995146,-71.2671583714866,-14.199133068551012
0.112,-64.22085988579353,168.53955631104552,-33.95725749513887,11.97189651930925,17.945847019637707,-6.970087571882213,13.109686871809247,-24.33576653453609,-63.51030400019361,-141.66746781797266,13.863747489916374
0.12,-80.13420213692392,195.0782014441991,-44.61053089413934,28.737992365537483,30.447030457204477,-23.026645896874374,-11.538135555303885,-28.370598944200722,-9.732181958401743,-187.92995485737293,0.23926316964494454
0.128,-98.10108214956725,205.6413022712632,-41.10845441775943,26.002088759848668,44.41831244104695,-18.63427238793254,-7.920554581719529,-31.414940000429052,37.099378769126375,-207.83988035648628,-32.425529971713814
0.136,-92.72644746603318,181.3956039673501,-42.210645397355016,8.212184991015556,48.468880862034766,-11.426694771927949,2.227323168301867,-30.07783082429196,36.175138830197156,-201.47366133384116,-43.12023774261409
0.144,-73.62774019897775,143.01297703801956,-46.7986975046422,-13.448878251259876,41.18973493865973,-11.63902297624555,1.2217343296076026,-25.968138012176997,17.35143028575471,-160.28980586851077,-35.55524538272278
0.152,-75.67037574839357,121.54859000076856,-44.38910281887392,-33.22092345101284,33.54021080158164,-14.156355682603593,-3.184849320801271,-27.731371660187673,5.121933144383243,-104.80287256750448,-29.94208506179545
0.16,-84.74296274591657,115.02938370892068,-41.20969419237631,-26.987718736075543,32.202673915477284,-18.431503272985733,-10.132098808753986,-28.78991609094858,-15.44962631807908,-74.91415498322988,-27.76445785282562
0.168,-72.77916035791894,110.47662052131226,-36.51795554824652,0.18199726636150113,31.18039682651602,-13.969735981595973,-6.496118301071843,-13.185469771942392,-35.03633134561067,-70.36153526717716,-27.51247687165476
0.176,-65.9693088708949,115.66104079821845,-32.670251888724934,5.980863427207308,29.7013786320297,-3.9127324046111402,6.932326813016168,1.679292365819642,-27.365400712127624,-68.96269867768487,-31.853232088375627
0.184,-86.49741024275912,132.62889577646527,-44.25164077938949,-3.234880756403767,36.690336282430785,-14.223816811437631,-5.379971752614281,-8.799516610115246,-5.363241766810133,-74.26792455423622,-41.18860150271859
0.192,-104.1773230853869,137.27812417860378,-58.31329758317567,5.769289729943072,48.04185308940072,-34.379639467729845,-34.389036331691536,-23.96828557898151,7.060547401460569,-82.14176369405016,-53.77952927903792
0.2,-102.61176138486749,117.0145604111348,-53.1941927518709,12.24562503224998,49.41116871116956,-31.472397648560523,-32.03692902316146,-20.677244608132703,11.791382788142347,-70.96937766842308,-58.20769648596849
0.208,-96.41867064775374,91.54179366576378,-42.83390180941346,-4.687647049049423,41.73849340385904,-15.794603250175587,-7.134695574592795,-13.132380293737642,4.480197244930883,-55.670201021291064,-44.094641404446755
0.216,-84.43351869947904,81.32469200037819,-40.59935873366063,-13.949024329141015,36.25814455045262,-10.240266868627904,2.6581887432750944,-11.162530918523846,-26.371703205157992,-61.456654239890824,-27.742055969137475
0.224,-71.8986441943154,89.50093086300232,-38.64336843236583,6.436338012693257,35.59071836037569,-12.080861915156795,-2.720229458000473,-10.235253633459328,-59.81788809824919,-67.84083091609429,-28.00385845703123
0.232,-76.21633905960437,107.86343682209153,-37.72545673779735,35.674684041408156,34.91259399376798,-16.54226383584736,-9.527872603921812,-12.534877434877789,-68.28475966227354,-59.332667894218,-30.629179382256336
0.24,-78.21390414509605,119.44997117783372,-37.04821692956061,40.57169938521371,29.78859838037717,-16.677433014051985,-7.755497959306904,-13.034079418769844,-61.79386516062815,-56.92525662413637,-21.571225309116965
0.248,-64.28771763347599,116.10318546571182,-30.932213578278166,19.1516931225971,23.880560859774423,-9.087059805929522,1.3382167375572434,-10.044607639736885,-60.702752663261045,-58.266397787783056,-17.796778549072958
0.256,-66.12010636022205,109.51919241588071,-30.825591925709602,15.68857706585438,26.23627894170728,-12.1401165329081,-4.51050061855102,-18.358697639426197,-69.22941630768943,-45.42704974637727,-26.67510284100884
0.264,-82.03294456359122,107.38744182342617,-39.71197702325701,41.99342681633441,32.1014994666967,-25.13092438019826,-19.74709301053715,-33.20800014707914,-88.67357523219285,-35.983352411000126,-27.817910398187237
0.272,-76.61759959531821,105.92021233502713,-42.86492840697331,40.498065146071035,29.239287300938955,-22.023534730975694,-11.290335234097897,-37.44726938057297,-105.42680141712462,-42.76271877820403,-17.88056203389119
0.28,-58.80031817315756,104.34572607057477,-38.30429426052103,4.595740337472898,21.955036477583334,-7.168314545448881,10.353935120334205,-34.60930733564981,-92.9028618224964,-47.48885319304693,-16.164318667369095
0.288,-42.561049145857496,100.32133784453295,-23.967753185803215,1.2950233629360495,16.8169376340437,2.9643861247028367,18.605299823498587,-21.809571395170877,-60.07108328093393,-48.41480510342581,-21.37457544151838
0.296,-22.26639130413239,95.193406308748,-1.8533616707383722,31.03744848214852,9.483279059337544,10.929528957459443,20.639726261661664,3.306126971391789,-35.64121064502165,-53.710776780296804,-16.58662528352573
0.304,-22.74143361601963,97.36525268121913,-3.0635862488889636,34.79149187472276,4.706014041966397,6.995703485031457,15.025601388100172,11.101153198384132,-8.154646283232887,-50.1651482980265,-6.19173405205278
0.312,-41.628472592125554,91.68507206184367,-27.49295658107792,12.635825551940119,6.388668471895579,-9.242776971527613,-1.0628700210183637,-1.5163064428303648,34.15471267590058,-29.137679181142367,-3.5063217205074886
0.32,-29.394118638626505,60.10732021819166,-28.02128525427095,0.12051694042464133,0.898981795611293,-8.891679343875992,-2.463963278494613,1.577087542964273,52.72195580164539,8.643567744965283,-4.727114403328406
0.328,-3.582334974029047,34.20248327947304,-7.398280481281669,3.0299983998170035,-11.309166275261884,1.930657838860298,5.016488107347825,12.805120357344093,26.800548906261977,58.169824462647256,-4.4299898615009
0.336,-10.35695954368735,42.624744116177055,-4.615193074907869,10.927224854061144,-12.070964634861733,-4.90397214313648,-6.640042064415745,5.313644024625615,-7.89449937325974,80.40753736126308,-6.104798482493889
0.344,-17.968051850476282,54.804760749279275,-7.22642569350007,9.506765129767764,-3.8567714808691456,-11.348270445300754,-16.584098967490277,-1.8850303686971206,-27.240678186294325,46.53308806186763,-9.102369260977046
0.352,-5.759605381442306,45.84274876789589,3.384276462570429,-6.471029777778829,1.662066550829046,-0.6215571294100706,-5.04264037912733,0.6287293107244836,-34.92635936475833,0.1397059398936047,-14.093073820513764
0.36,-6.400401357398843,26.53599727475267,9.246661682491771,-21.119223511913145,8.639729597693153,5.687625726620195,2.7540999966580797,-5.78663997450872,-28.276215321908555,-19.15105346056711,-24.34071524172241
0.368,-9.24247510657242,-2.2136483847511568,9.100957856154297,-26.582438752546214,15.299637360888582,3.7518699869456182,-0.37974124758320055,-10.702437877058282,-19.429038646942253,-30.999689308269197,-26.983999604192398
0.376,8.492073158608365,-33.145381870767196,12.16196841149435,-24.66847858487727,11.28851511250115,3.593491251942116,-2.5071752459836376,-3.002527052664509,-32.39917438538597,-34.56937824487499,-11.37455625411475
0.384,23.784368443850752,-46.60067134513034,10.012211935047185,-10.180914398388538,1.7711812866458356,-1.3338610865949396,-9.500574634354763,-0.059050601111538835,-60.0138921510196,-5.222033038434475,4.667522595790545
0.392,28.221921589122022,-57.36259246863691,8.386639015714447,5.0660789085180875,-3.513987402563295,-4.6393995732533115,-13.66513300570457,0.215109051326254,-87.1984984293233,32.18888829624664,10.31929517666411
0.4,29.75548530121215,-76.83762858002385,16.05190312974132,10.17771699654717,-7.4751765911045975,3.9290684676536123,-0.1772402200662968,9.917592457324021,-108.19564712739323,47.972635111140264,21.75385986559277
0.408,21.681339925325858,-76.32122394968181,18.10008289656122,25.055374742599998,-13.486157137577583,9.630717461370608,13.431849040781984,14.541723927868881,-94.44638389329907,59.9779313144073,36.112915428968115
0.416,16.255253658601337,-57.541146038291735,9.57094021667268,43.90895000221635,-16.84090926107993,4.876948480766337,10.24757888164028,6.3035569607444275,-42.287390704775234,75.72807860722135,29.823501216674096
0.424,25.175793846420003,-51.31924075271455,2.690506627015755,34.64011135655523,-15.056006660153757,1.2529016890823477,2.512139169834488,-1.017867258890477,-9.890913377198116,79.67502012746861,10.225737164238977
0.432,31.705486464929233,-46.64985053916492,2.2215205511723064,19.181676495256717,-15.327981306442528,3.0569689180036717,3.0958957177584,-0.5619208124653304,-14.56272831986955,81.97496744629439,3.214746708104742
0.44,32.272882055573604,-32.86299900890021,8.208786586558432,26.9699910800061,-22.04384395849703,7.362888976363696,9.073797965975007,4.117544377821413,-7.985868965787298,97.61533372185157,6.374738348518297
0.448,33.40446744152557,-38.08480365513374,14.186213876678602,19.07839846725129,-25.961448758041062,10.120947016244482,11.100455109155462,6.111162707455279,11.410875031951852,114.20493521676896,4.810385179299202
0.456,30.872076776807486,-61.793857554580306,12.85174208842153,-22.187997301634095,-23.087660693936236,9.102708127433191,8.299750968474811,3.1044876885491535,10.960560536417653,119.60229826541233,2.5803184379876627
0.464,27.730462350254374,-69.35813596099096,10.863833407222067,-38.41355993866596,-22.001386802980317,6.257074902290689,4.281858282449911,2.5693919636292253,10.441267706846746,115.69926115882292,6.788020431360462
0.472,20.058369821328135,-56.366389396887556,8.294573978575288,-8.190854633824797,-21.04386786230491,-2.9759433615521123,-8.962634801982453,4.698282035989317,36.84990955967941,105.86745000760992,10.395047081658769
0.48,9.603691079880702,-48.774544586577235,3.4923064738189704,8.220704882236088,-16.254993820079555,-12.282775711925089,-23.09338266828135,7.040315237940454,74.17764988459008,93.93050666970908,6.483471602298714
0.488,27.056760551993154,-63.331937104758936,13.822424434343736,-22.134777807249314,-16.23095401547005,0.5167441344331836,-10.198570943723645,16.989874823948252,100.91552439535036,74.69272936178801,-2.1757107187741536
0.496,54.67774665613166,-84.68207572311442,29.599918220575685,-53.833990445408006,-15.020953356930582,18.974278092099098,9.66391952033026,25.224722630162628,109.0655913038802,35.47483452914423,-10.351265528354858
