time,C3,C4,Cz,FC1,FC2,FC5,FC6,CP1,CP2,CP5,CP6
-0.2,6.605193766792054,132.64767946827266,4.054570795554928,-21.75573946109937,-4.883374404923221,18.01996723267395,25.0396017281798,10.026643969153994,-93.40019052699175,-48.21161723555679,-9.607065699028565
-0.192,-4.788993494452925,129.0906042265321,7.241936330460944,4.363053020490986,-2.9872310998042573,8.67813817365221,10.024429006891719,4.5422919575911465,-71.47413603221969,-40.133728330061594,-11.49997904421966
-0.184,-10.16311331661103,112.27796383132886,4.135637395202555,-5.886207932116105,-3.8958872737445165,0.8014618658512,-0.42615491874982087,-4.129827105293301,-52.864318806879176,-30.683510237694094,-5.826574968664673
-0.176,-9.919702812012645,99.82217520744315,-1.593220197600545,-18.91784183073804,-1.9273592529366537,2.9525309059924463,4.354378175028431,-1.1547076761234165,-51.430161184164575,-25.11633046037887,-7.964523616325043
-0.168,-12.996589860941679,104.98331222365319,-3.4893623791530066,-1.1282969605027122,1.504150550158387,3.100032284462242,5.226463024775726,1.17920500959446,-58.29841970492527,-27.33846684411517,-12.867861964019403
-0.16,-8.122608768036743,104.3450836771239,-2.4710633573685112,14.202148962850728,-0.11838799603176932,0.1837703022070628,1.6856746250304488,-8.472816985736172,-67.39568221975242,-32.58871203234652,-8.629664815679
-0.152,7.330069942058588,89.1425806730758,2.3967103360646345,20.06284460314913,-5.110566774885924,-0.20629398120503653,-0.8460187870418937,-9.573325578660098,-70.96921549206239,-34.49453292089767,0.35102160411618427
-0.144,7.096870681077176,80.15975863187003,6.134957441379333,36.30263080323053,-6.725721465425575,-3.9859498740753176,-8.833239400470275,1.8170849386445693,-51.43960113373392,-30.714855426971727,7.02634467435711
-0.136,-12.585300167282112,75.68857988082998,2.000444104556397,32.45412894891513,-3.2202410194786575,-5.675294052067148,-7.664221312562639,1.06925031456888,-21.197558068887325,-24.884225242189274,6.466104675038135
-0.128,-14.966931606974072,57.061160659910385,-1.4266375654050467,-0.8829061874249448,0.2383341084641558,2.337151438377635,7.47306224858056,-7.558745860103277,-17.27407874238935,-25.490394565121417,0.19119796685489002
-0.12,4.787224140472681,33.29309243544848,1.199301510858162,-10.457942267057769,-0.36701380949151846,3.745507074565617,5.364643102699989,-3.2830319124963436,-28.540909721014895,-30.388807493636737,0.6009673781357501
-0.112,10.075436684872656,19.345210242979423,1.6717150010181745,8.919019977787707,-1.122189833558841,-3.7822518974811974,-8.651040523315466,4.091597737673908,-14.082713208192319,-26.43923570916642,5.096116451691801
-0.104,3.0345103128312583,3.627138932490808,2.543843902261821,13.926707164153733,0.7097783184465192,0.19828798266675543,-0.7760346323335987,3.325502697414922,9.764018415018347,-16.252340813782116,1.1132377534604228
-0.096,8.297837022180452,-20.160197586813798,7.222989809899037,14.144051537666352,1.4036969387616058,5.537874435273356,6.653247581811076,2.1742521662707466,8.180605678001486,-12.985141251887958,0.07271063751558737
-0.088,8.237149553767788,-36.27952227422697,2.886534393224465,30.930902757585336,2.0175636153090264,-7.067853636543948,-12.22738753989126,-0.5309091804281956,7.550230408044586,-8.777351677978169,8.016782538216333
-0.08,-5.7688142433390635,-44.426156091410874,-9.344546499197433,33.472051987073776,5.804377740979755,-17.642692877565494,-24.547184955338025,-6.241585359619666,32.883936463899204,9.045326203266471,3.93317954729437
-0.072,-6.515400819537579,-60.106464151240864,-13.335745003466139,11.539420115186653,8.247103600845557,-12.927719692535456,-17.214706337557498,-7.080762846290838,52.18488238589842,28.777887226827563,-9.876693506690753
-0.064,-0.3536264072699571,-78.47916966020966,-10.769842653578362,1.9346055897457837,7.67143028847595,-9.257151608834214,-13.086651554897102,-6.626816014247672,51.39645545660058,39.2132952234804,-12.508020553325652
-0.056,-5.8963351919551386,-89.4120965766702,-5.2729322056015535,8.44242745918527,7.390167582961085,-3.8905506880239926,-4.099381566589559,-4.8447105635788885,53.50045111707878,48.08594438430267,-10.657851588017687
-0.048,-2.215403021337992,-102.64877783161384,7.148172574119444,4.348258383710394,3.6677823534831937,8.80577637637471,12.87947135385965,7.514777619210366,52.04413706353995,55.81486255213903,-6.050493744013272
-0.04,13.46013133733329,-118.78078041151036,10.998117038041864,-8.338136293626116,-3.713646788133062,9.034713602614767,11.285705371133318,16.199356262478886,35.41075918451928,53.76849885358875,13.510563706701271
-0.032,15.333344510084459,-119.77436399334486,-1.5322538195764102,-23.11527920494039,-4.84821166314912,1.5640548330643047,4.304301575943281,8.51120988689887,31.660751299857054,46.704025317289634,23.36975222640923
-0.024,7.719377627708449,-105.45895530077424,-5.343326759701297,-43.65572159668104,-0.1364003129716522,8.608398778709775,16.483536817562822,3.4748590244512694,51.56682068383019,42.29077656973463,5.753741198997434
-0.016,2.2190644334734393,-92.30780553085873,3.1279627243133485,-46.02953755236533,0.7577729066921347,10.113111167657387,15.154262155370171,4.587518489837504,66.54159271363255,36.82222639938278,-1.4207318529311248
-0.008,-2.7264910522924772,-85.69275880582582,-0.4064030246215062,-24.083728110387323,-0.7803313520344778,-8.41891580427677,-12.372228147005103,-3.296412907371018,69.32351637312752,29.07790542843768,12.30981351848373
0.0,2.823100749391121,-87.9572918764585,-7.777559891685308,-30.79091391379237,0.42440504199185325,-10.826102341534844,-15.184527091114752,-5.719898083840637,76.3588275981651,24.898502083334623,9.09792747564258
0.008,12.57772117702173,-103.55134944490992,1.5884266515950438,-76.07513264764643,0.48634210542957407,11.691763605000679,15.267778900483512,8.75799373575708,88.32190577742537,23.99043723952769,-1.8682879614532133
0.016,9.167698815211027,-118.65416190975138,11.997047354561628,-95.52014711747273,-4.9198878665361985,20.114163255597894,28.175961291273595,17.32854212912229,100.68759246371879,22.508186792670113,14.932806249694947
0.024,9.564546157736329,-113.25960960058728,6.654320560944574,-80.15458108838438,-13.756421623389134,8.069676664010329,13.570575495297541,13.994988985977313,120.21113628614907,25.670774949011147,37.890336264653826
0.032,17.487385598533415,-98.78034835411665,-2.9778187857339278,-76.44575398662104,-19.036537761523235,-1.107545953964156,-0.38273687662656625,14.893832952522143,153.38827998296435,37.50440131964305,37.17882752702993
0.04,5.514503001308483,-107.88510574774617,-5.783474139996688,-69.23203085044332,-14.445649506486252,-6.708936187828301,-9.164024847618396,16.7142784926701,191.97214211787116,47.37232974268306,28.66972229512548
0.048,-7.9124395338647435,-144.95756326100803,-1.4976126921436663,-32.57953365213755,-6.196654111107178,-9.470938437910226,-12.67117791255908,15.001092512935633,209.23353708782088,52.80138212991379,24.861160308716265
0.056,10.901819667371518,-182.46110729207658,7.942139843640766,-9.454714712356795,-6.458189873778064,-0.8143085879922983,-3.736734684099703,20.629872703715982,192.7314067932716,72.74604511606897,17.75617693750265
0.064,34.839425939141805,-208.01071615270254,15.433048987867618,-19.2270128239677,-12.319277044798884,6.895249267930109,1.4262877712937367,29.8731801509524,167.65636254787074,113.53440268811542,9.753103383621463
0.072,35.71025669911271,-227.66159533196205,13.845214743517339,-23.821466790221923,-15.3070340929435,1.4590592757787335,-8.308573800494521,28.128759905617184,143.02851467563977,166.02878438587896,6.246675181565423
0.08,31.105688779656603,-226.21726900207625,5.493121667190937,-23.755378437047742,-21.99271378753617,-3.2229837608615965,-11.469762097789921,19.06817488974615,92.5124392096788,235.900652406753,5.824651786405583
0.088,34.305283064044055,-189.33497272642765,0.8380781943440135,-43.906965870242125,-37.67743675207171,1.5427195790611323,-1.2538974218408832,17.403443639124106,27.888608199136474,310.25596535525216,8.544923453587144
0.096,41.18322779029609,-147.26133716768484,6.18093227865606,-64.62722373652393,-48.98154777356713,8.065099366162594,6.113720605780316,24.04711833124589,-10.826886555132198,335.4170223648769,10.641089817239296
0.104,41.353272699207025,-129.01670997346906,10.047122272834814,-63.25814699627904,-43.71401650514397,12.98572489616136,12.834614061458982,22.776709440774535,-38.17774259703671,296.2613325896017,8.26405985059529
0.112,17.496278273354076,-118.2209666960449,1.032311251792767,-43.46783635871515,-26.14158042758762,11.85031061054124,19.146775574856836,4.422504297485313,-79.65698258544514,243.39154715682906,2.830761338275542
0.12,-18.060162601434648,-100.12379148632412,-7.558337839087169,-9.683920208885457,-5.540082868915649,0.8247367969588563,8.161245520083934,-17.01899385290703,-107.07220225178538,205.0166013672458,-12.305838658438804
0.128,-26.087041761279753,-77.14176306361688,-5.6619847799033165,18.984056241195695,9.387843694173467,-6.9357638140255276,-8.062844134552773,-28.2127883048067,-111.26424790303156,165.96570895976052,-38.50414308586576
0.136,-9.05415710389568,-32.40041335361463,-8.838121414357612,25.75041754608419,10.388030541894093,-3.744637609336189,-5.107844245895056,-34.169867133958526,-129.24025160518556,133.29896942627812,-53.04755845246168
0.144,-6.607337536897621,36.391156941776536,-22.654790164401444,34.35993599428089,0.8580260179757768,-4.391001592067985,1.6194817089852185,-41.32639626624687,-158.24150951150713,128.2013808381561,-43.355022110370044
0.152,-26.624355508661253,88.77055538599103,-33.66485795235936,53.11288215138275,-5.435569125851584,-14.30825488530386,-4.443636239747959,-51.70876720349324,-165.43637357265487,130.60410439619113,-26.75800430929822
0.16,-41.395828188753796,108.56569914766422,-37.44631964494134,51.999640006929155,-5.564018231753022,-19.256090421405045,-6.603462286983443,-62.20107849806792,-161.3482748986925,108.62729792695998,-14.432193955914821
0.168,-35.55631684582669,119.87828230026372,-31.47155713083295,41.25542718794434,-8.559431330746966,-13.79653674498614,0.8654434582316451,-56.99055115379672,-164.49026270101635,77.7155461112725,-2.7590607141560493
0.176,-26.35154684963032,126.92833297092368,-15.273113873204002,57.02734217683999,-12.864193755342724,-7.808433879009091,2.907808706178317,-36.794925008411965,-156.53305713615163,67.12704054600448,2.2349371842381545
0.184,-33.35419276783295,124.68514022067221,-9.34505318162658,84.17485868343059,-7.703041848441266,-10.52122018915238,-5.030698218094101,-30.09452511914101,-125.68232646465935,64.8982552955787,-8.643468854564727
0.192,-41.366428457091004,123.17844507497824,-20.10620853418244,93.29436798470068,3.3610228878867217,-19.099637420981395,-18.10656644919542,-37.2650671089579,-86.78803565048942,58.22505598218802,-31.768830964878365
0.2,-31.528699903529056,107.13160643849187,-21.315308814042236,89.35857063661444,7.110086290143444,-19.766182538667003,-24.698748047250966,-30.830271376797135,-55.35249483939784,72.6498651896197,-52.65160500066954
0.208,-24.232110518030222,55.95166229836125,-10.388731003179311,85.33064790634977,3.5343271824639944,-9.826976380221424,-13.039415754950811,-18.811352335249246,-44.45059089727068,115.10381847195164,-53.10970428890456
0.216,-31.5223017437268,4.356371416421704,-11.080515610771672,96.00998127904562,0.7340411608875248,-6.668827535664536,-1.6443880371692887,-19.957196369648422,-56.554700260617935,150.7351486344162,-34.84794778553475
0.224,-27.045715701012348,-5.503556036850113,-17.016960028215713,124.103452043382,-0.4149488305148261,-15.392777333053118,-13.80053475722709,-16.746844725409055,-70.48110854574261,162.81294321813715,-27.109624288140488
0.232,-12.702155782914383,13.101204462056005,-11.609947859364691,130.40340336686918,-1.070382737139068,-17.478499274099086,-25.320545112863293,-4.651437427971955,-70.84854634381713,158.47789664047264,-38.379960836354925
0.24,-21.625551383933416,32.25248078086577,-7.7382114888995615,99.30428158939108,0.5006935503476451,-9.520939259271803,-12.579173940946827,-7.406993928185711,-64.30868966923562,134.89351190129722,-40.42281870729759
0.248,-42.16341895034407,42.15656172177772,-12.31053476235717,85.3958298620333,4.204460866848852,-9.726522892818572,-5.6060868998807765,-17.907178778826637,-54.55166982398726,100.87788451939593,-28.152929118413923
0.256,-38.97997006682336,30.874992814070787,-10.998335943014649,107.55246287745467,9.245443609331469,-15.837845316605353,-17.324538419732676,-14.786589553511178,-48.60450121203504,78.37626957386775,-27.48040742050792
0.264,-22.30443338796104,-0.14352396820953403,-5.910639043102968,108.01330351533994,14.600521238713958,-8.402938922445632,-9.963350238632486,-11.372339812715973,-65.45804089183852,64.09304066212894,-35.62547816128907
0.272,-21.726358983491746,-19.993370900270794,-10.1709680840638,76.36813773617372,17.171381884682802,3.4480059247672505,14.05280040618447,-20.421690894328545,-95.3697091202993,50.74842938114699,-30.251725654324716
0.28,-36.76881286265041,-12.107732051857607,-18.34903380168605,70.00579383551559,17.055260463076987,-4.004481507064864,8.137690291229399,-26.84693994814859,-103.7810188762453,51.69297123780427,-18.68447710326063
0.288,-48.7448368881517,4.046214801285217,-20.919233540103992,93.97570379102567,17.437818696775334,-20.295959333519193,-18.37104221754841,-22.93229953080855,-89.08953887526178,61.13256526414401,-16.824451002634046
0.296,-48.30839924174845,12.771524618650181,-20.778776160498655,100.48491348945026,17.69317096454625,-21.07674088134989,-20.991229829365388,-17.281828759754518,-75.66735053454876,57.687766574527295,-19.831642252780952
0.304,-41.84042550308123,19.418989116845005,-19.773238484361464,85.63097395850532,16.16601207543969,-11.318840807523344,-5.792244891195836,-14.815918611622129,-76.22473656684522,50.062458968432885,-22.18355751677691
0.312,-36.22781423585656,27.62358354473054,-15.256604477411924,79.70976468960413,13.61658535752558,-5.522862255062237,2.0308220275839757,-15.174985569548808,-95.05892212033562,49.23021256928079,-22.273936672374944
0.32,-26.191752057344637,34.70536240899515,-9.234347324267357,83.67911586818212,8.825655474889604,-2.3950442100342557,5.5692207837504775,-14.104858288809686,-116.50910036074266,39.77142752074972,-13.217142104216968
0.328,-11.370849700793192,39.32078602929226,-3.3182111159004313,79.51631147470415,0.914764481667951,0.12871359526224227,7.401151875600933,-7.437654707741807,-109.67636991706446,23.80341421008645,1.6546076940571908
0.336,-4.274245843102686,40.59243771301967,4.241124225210455,70.67687250881264,-5.106534122482112,-0.43153660108951974,2.5878440604939974,-0.5929089006709826,-83.40842093435309,19.846700849972258,9.064029636769938
0.344,-7.167121229728983,44.301548971264694,8.75197347707698,76.44176135812991,-4.7320668349124935,-3.307973125256825,-4.568557682287883,1.8467277841647094,-64.31319565173312,17.932774626306156,6.345476058387675
0.352,-9.974070553406815,54.276872512220535,4.105798684339673,88.78075112072142,-1.879026863541169,-7.288278513886561,-10.776251046766728,5.647444305818576,-36.25690549158958,9.63298944184541,0.19443595622135532
0.36,-7.491675577451862,52.00647245071733,-1.3627565402780188,73.83435347014063,-3.3537446070498476,-7.712228643507905,-11.818666265219523,13.120974450039048,5.569490233408724,15.95052671459238,-3.174036422894295
0.368,2.8100705044318843,25.472254403781537,5.116110731936583,38.76658774938077,-9.100983032775005,1.3950897662144832,-0.9448693541647706,20.916586642360333,22.81376602898061,36.753062830912874,-1.4128709499994765
0.376,18.485619134935387,0.4255418721583738,17.487456658063387,25.840947002069438,-13.75715252074661,12.700328653064332,11.762493085859717,29.268556387918686,17.57395021154623,45.43891733628699,1.043133620866492
0.384,26.02157406419607,-4.3438827681351295,19.306441574760637,23.773249691148134,-15.142595429863206,14.730030322812777,13.239065390819427,33.90377888256429,26.683282795283564,40.68409565701141,2.0787993446749073
0.392,21.525262736636147,-3.8081947346098275,10.024406547789024,-7.581150648933438,-14.387722107389813,9.797399663174643,8.536524005708635,26.005416461805567,41.29429690504773,33.95592856699342,4.301918987779558
0.4,16.9404708526294,-0.5119235436242655,1.826583769992942,-48.35360609766223,-10.779113230002542,3.729808899122578,0.7676499693883347,9.983868037335828,45.06922090139515,20.083361996580386,-0.19259707619333363
0.408,15.925061452533567,13.551489719160934,-0.4642620530898785,-64.69199394336525,-5.0350225879867665,-1.6871493570384177,-10.487522907396494,0.44922896267839174,55.756767949881024,2.764178082235213,-16.01431259532623
0.416,15.039517476592522,14.952981284950143,1.3621899458604128,-68.24450513300896,-2.3661586898769364,-1.1177562010825945,-11.574223565103956,2.2352170399391635,66.95135134445206,-5.491991374178366,-22.069872606229943
0.424,15.997929753309847,-14.707017652264165,5.454770256630961,-65.87140361377863,-3.6389372051205853,4.979340260306947,0.42991110500182117,6.55382055205061,56.05737513300704,-11.794199294136027,-4.898929663666793
0.432,16.196891778221655,-50.88700981911453,6.47892480918531,-52.516885788865466,-2.945380730970902,5.31923735139743,4.928884739033791,4.4006041613151945,41.44238974369165,-23.188110091358407,14.454346240481648
0.44,16.18958126968944,-72.4110111512364,3.4581928568414377,-49.13710154041596,-0.4293076901860347,-0.05372389544026631,-1.9736298535873502,1.4207304939874619,39.590131402614794,-30.972864871378,21.566511148600007
0.448,23.7831434252915,-80.7806497419827,4.6685221130305345,-67.88923942903553,-2.3410692467020775,2.804951995970891,0.8733503248700807,8.924532727870533,34.48569889652056,-36.70504004906844,27.857885517571567
0.456,26.93642901063879,-68.820601637955,9.103885420766693,-93.62098778139399,-6.231276967314509,13.489088368646094,16.652151530957553,17.54814028852445,34.47436515154469,-46.07247772828798,32.3835973543589
0.464,14.346336546322036,-39.50643472574894,7.392824100543099,-117.36663975422883,-5.92019131812492,15.925875394774476,21.644764734735375,11.373947160638796,60.74036200469361,-48.00080672861915,22.43154003599252
0.472,10.086776036627516,-24.303818496198392,3.951703421348787,-129.38561212528342,-5.264513366823657,7.235226961614528,6.503345022387551,1.4279134027572877,88.77827717876781,-40.85524037510763,10.019419843006526
0.48,21.180187171771554,-35.375368783590055,5.917325156218805,-117.80606637073643,-8.03763079105346,1.8200707476733966,-4.2841846662465235,2.6877318066377813,92.78459029924666,-41.148733326316595,15.558369020759867
0.488,21.732560693698076,-52.00725548262098,8.340330463382806,-97.34359162080773,-10.878520001307754,7.452084861052089,8.239770414360516,7.6187239047744715,93.5108855598937,-45.96164935052788,31.867934691645146
0.496,23.47849359026591,-63.31542020399168,11.116814417905399,-89.2471498398445,-15.365556305859705,14.756940367394918,21.988586379862163,12.204780922467615,103.4040533861951,-38.40878120484686,41.281819703965354
