time,C3,C4,Cz,FC1,FC2,FC5,FC6,CP1,CP2,CP5,CP6
-0.2,-18.098499214767674,103.8894933815839,-15.456270494281497,12.861374828881287,1.3528615303311315,-5.9491563195676385,-2.9809877847538133,-7.351790164539044,-11.937652183966728,-32.9935685502122,-7.906359281742815
-0.192,-25.290118287046358,111.06366814940492,-15.885300557126778,17.444504499099825,3.9986671104204374,-7.754750224351722,-6.354823214614415,-7.500582751281385,1.4494688412216772,-29.1842141317037,-16.17248943152008
-0.184,-16.525077336220516,92.70528883281156,-16.974391484478318,-0.6553209974903847,1.575866079682932,-4.427832384673575,-0.18247944216713582,-9.7878010207764,4.286109131163415,-32.22674953691278,-9.609962608727955
-0.176,-6.348424959923273,60.93553065503275,-19.06665299180874,-25.979384990424624,3.616777513143806,0.310197103622688,7.671669841226484,-12.274361559816045,-11.215574699972155,-40.341156102251716,-6.511619791952452
-0.168,-12.511447387459452,38.93804194884567,-18.455346585413075,-25.73257911127631,10.722365340200156,-6.755288355662612,-5.3865483831525856,-10.466480409718127,-28.536892698769012,-43.645654586701625,-7.285904250851613
-0.16,-10.262659414176177,28.053493550739425,-10.731068549324759,-14.159347656754358,8.325677851367919,-11.719613690144815,-16.039111559223773,-5.983181262181746,-40.036610967552576,-42.88498168316288,3.8074765850337386
-0.152,6.987251543356046,30.56055933857906,-0.3645920220458397,-10.19215160546717,-2.4523312727248925,-2.3937112110300687,-3.5361415767568314,-2.821981932280014,-46.457494899552515,-35.71456383092859,13.624417172255969
-0.144,8.871241431447764,53.074293119474056,2.4108963461220907,-3.7384633017949596,-6.748187725551748,2.4117774671889696,2.907754469665519,-2.931761010477948,-35.72493649804886,-19.26580079919488,4.48107741686324
-0.136,-0.04892557422444879,74.78358299431738,-1.9533656480204267,2.171941206793869,-5.413858658680825,-5.5664516295725885,-10.104506532568651,-6.445282697628652,-17.17484395033906,-5.55677980628943,-7.6304176837781235
-0.128,1.862809471463136,71.00024910743758,-4.15425844555187,-1.1734807828329017,-7.651992335305155,-9.800330808141949,-16.175991662343122,-11.115575694686017,-17.68947671334086,4.204780990851383,-5.116821882725643
-0.12,-2.7862057928327193,52.106260564593434,-2.971895770924361,0.7461776548231265,-10.578624656568719,-6.818802178320144,-8.378461792964517,-12.658440387753355,-23.100624722952283,24.278230423762057,3.7775131226146215
-0.112,-14.928087465085026,35.24440793922854,-0.4184174139609348,14.235717105203605,-10.883439831444372,-4.491469014120625,-2.523699952624379,-6.547536693227986,-10.905406362289208,44.50566093450238,9.097939782497374
-0.104,-0.8009848949889415,19.010872487259064,6.914717637702131,24.076741236634472,-14.32534836514006,0.43493405976214994,1.1742279436997212,5.402982186251601,-5.41988049601188,48.4836274630599,12.134574146239531
-0.096,24.532709027136004,5.307367242354083,14.278533782036238,23.08181637996321,-20.246178741865286,7.559888926159636,7.316025119304688,11.705347764154665,-17.313533024854014,53.80866257522703,12.924243965259448
-0.088,19.010789467546616,-4.1071914872429724,12.346742962642855,15.059086885516322,-19.25362013399198,8.33723171069027,9.935821515611735,8.235130376930993,-13.089354759951853,68.3176749822119,9.378173869350597
-0.08,2.289264837771618,-23.968406777219585,7.806778875507109,3.140523757367365,-10.8743607214041,7.854997627170621,11.729783798419458,7.409195196209842,9.90952309413481,64.36132073294569,4.050184956258378
-0.072,7.33468861073168,-56.89743988579078,8.618509335713439,-6.3898969283833535,-3.7974500013339907,12.84699723763322,18.1807469024773,12.680386756300047,21.262685465971778,40.35465921573606,1.7641375576781917
-0.064,12.047939784403596,-79.26940084564043,6.299184648880102,-5.671212990011411,0.8641882708729925,10.839265457655564,15.070547795512697,10.607013384404363,21.510889498995486,24.46644400447885,2.2542005153904077
-0.056,-0.4900524825575848,-80.23821949117784,0.08298669496914132,5.639058197747614,7.949844753128916,-1.3360592151799866,-2.161443761781592,2.3293527605910933,23.594483301391925,15.047371123058658,-0.48032819080216504
-0.048,-4.376030686694342,-77.35064244652261,2.7379111888517875,15.400363651140136,12.899119510912428,-3.7457808702033852,-7.966538144617369,3.187800164847186,22.842535697998578,1.3424890089493462,-5.893062649767546
-0.04,7.501496270110685,-83.5565216140614,10.605340318689784,6.1207957910671364,9.135137489679437,5.577556660900944,3.5567287483024366,8.48427703499374,25.177196749208946,-0.7206232924340634,-5.205653527707145
-0.032,8.75017346734647,-88.91395327368897,10.933337249265676,-16.770640944639304,5.31090385189789,7.959612095390879,8.217837404970199,3.975615499095199,36.455236382670876,5.130480918364658,-1.1752976135286868
-0.024,-4.171723183652849,-81.09430440403362,7.894244984448681,-20.020265950737244,10.792159711104883,3.8333764831761017,3.6643594366883745,-2.6929087571350023,37.36901356958928,-9.013330750315278,-3.9563583323795197
-0.016,-6.2589116231579744,-67.81325192309025,6.64275657703104,1.5201962028732798,15.910226993250475,2.3286761803400124,1.274335023616115,1.0187822674183153,24.701904573037424,-31.931932059447732,-6.178499440073634
-0.008,7.37599871229549,-64.8611553823453,3.583790652520993,6.1180991802934015,11.855616240682306,0.0009210852846992112,-3.48554761649686,9.457197922394233,21.967896931458462,-35.46518198342787,0.8492040032244558
0.0,16.332785679178233,-68.6026217808477,5.275828708555545,-17.133651317592662,7.915980197335404,0.4638138059933381,-5.423556575429659,14.084603027910463,28.07533874075868,-35.356865260165264,4.979631592891403
0.008,14.718812961026002,-65.88933606525578,15.944284240397653,-27.588727522061372,8.739449923171739,8.714408258058759,4.84313017381018,13.81638352561855,28.678299484124008,-49.92153212566413,2.466626685546997
0.016,14.119784518344671,-60.317941257557266,20.12225138991147,-18.982441291770595,6.555683262139283,11.706075975562268,10.950897349183542,8.121309784778722,36.00268140215549,-60.5723798528444,7.3284997840240775
0.024,15.141585139686551,-57.78591227230121,11.690812225177075,-22.202901373026393,3.3530494795810264,4.063286726192256,2.567819536044746,0.5255184553986891,53.35697836643551,-61.37822589324613,15.143534533030934
0.032,12.982753468307758,-51.05953528297324,6.16927301406632,-30.42924205463583,4.8336421841776485,-0.7763742064191328,-4.3773716199894475,-1.3481013688597339,58.693393028882795,-65.8821338634475,13.398021991517334
0.04,13.696857590737993,-41.562036097859334,10.586021447032165,-26.736711880546896,2.6139232236646137,3.049424191785471,0.10441747183046304,5.373259828239464,57.060323237268534,-63.524102969403714,13.932160299916006
0.048,21.225225322738957,-40.03338298194766,19.815687381915097,-26.57152726215668,-7.210271582603784,11.768658220868893,11.547285963980885,19.52120910687794,72.82439558263634,-47.70885558788937,23.674371735553876
0.056,29.52353154565923,-43.002083926232594,30.454068830812098,-28.046868630918034,-13.103223325884636,19.719014008374643,19.721650444439753,32.92679727760325,94.49978197390956,-42.575308809018466,26.920880037393232
0.064,31.412028860393733,-44.370304273833746,32.45482094182057,-19.113730897204807,-11.670336217240294,18.764805582925025,17.23668841769864,30.361607280193574,100.02701055291946,-50.429961756813526,24.25431779075151
0.072,26.795701571825855,-51.313790756135454,19.773537993785347,-24.84619709401811,-10.800119896106224,14.09309849145604,16.91454117645377,15.477906258134448,100.15728966112042,-47.33629781765424,28.10770450582057
0.08,28.336000973736788,-65.79905301950389,10.864000188877391,-48.20140960221687,-10.522386027322804,17.64635685935666,26.178325082199258,12.56988362887206,107.33689677502016,-40.431915539030214,27.735472285583874
0.088,40.93861185663282,-78.54306187649023,19.377834297202146,-47.277172554835694,-7.404690151575726,20.203900008835262,22.385775526815458,23.340757538552204,113.81067883694485,-49.291269113878904,17.126128214788416
0.096,44.711795966709985,-85.70798001057949,28.742729086991904,-26.323578031964036,-4.63152170752654,12.485346050702601,4.07988937386571,26.336993091593776,116.42888386669442,-61.443783692602565,15.189712045659329
0.104,35.664971421296364,-89.46397357173554,27.243273706352742,-30.118174789834214,-4.0317982719496746,10.322328829296662,3.6366683833146536,22.013769236905198,116.60305205941731,-64.80382575731142,22.50537356545565
0.112,35.284298584723054,-90.06077177859304,25.651359827631637,-56.92913371271303,-3.72974633262594,20.549363390305505,21.396075575753706,23.539813422553745,110.48087104133445,-68.00330571389266,21.288764094073656
0.12,36.55788335583277,-87.01222972273649,26.37895210424474,-76.13643846910608,-3.2663997601387353,26.089463035934706,29.582577744590065,23.376026947588503,102.71700621272538,-71.51216935818556,17.855303809198954
0.128,25.305241562150336,-81.52417564791253,23.096974306068955,-79.74063925327626,-2.1751664060566482,21.68546307568084,25.84655547351435,17.366439280110413,102.02968124253397,-75.78862102019703,23.143975175234136
0.136,23.013270219312947,-76.42647850021291,20.661402714416006,-75.91561022531936,-0.4416511528837753,16.794002505499368,18.65363653499991,17.57603394752485,109.35048561334487,-91.2442931490522,26.268150360513538
0.144,26.12259250169606,-72.31124887489902,18.26672467040271,-80.23570971606131,1.2586850282805384,10.796166697116801,7.814580437411909,17.334668408299184,124.67684019619858,-110.09177443116627,26.001485615789264
0.152,5.867515982281612,-67.44785978300428,8.3646193366981,-96.10149309625979,4.6557857850994475,3.3045487571728858,3.1693989371481153,4.855851593147887,136.21889659871354,-124.41284799317374,34.771853984597776
0.16,-6.922932289487122,-64.0263120296099,4.720766930625426,-102.62244566208375,8.64065551632492,5.417336897551243,12.17513943335581,-0.5474244040879381,125.27823788913028,-153.31875921535547,45.26611699537663
0.168,19.447174264790934,-61.788851437775264,19.204435019517053,-100.98311538930206,8.358286460991962,17.903275622651602,23.17251618973487,12.057157349365859,111.84919871012092,-192.41962805424936,41.772238131296376
0.176,39.00193086047974,-55.4076006440783,30.754103221476136,-113.90087430090637,6.762607204346625,26.753854518061132,28.404242065475245,17.961159911363733,128.62227634309232,-205.3229453213095,27.488486456854613
0.184,27.774920757242747,-53.93152124236199,27.819802386037313,-123.5024685400263,10.888068233178982,27.598585189630118,30.999441641704088,11.870057302355656,151.98854064575684,-198.19260128446194,14.772045163257367
0.192,25.092007141529187,-72.91362748457428,29.83915811942539,-104.06748368833158,17.409337693922915,26.212253644311055,27.145240978202885,16.485574142290062,154.25708981356212,-202.03107871529303,9.092686577728308
0.2,35.43858675821807,-103.13878527040595,38.40666073958619,-84.89546760365553,18.787600329062485,21.85974115215398,13.688842227772072,26.46927155399227,164.6287630879086,-197.44744260800485,7.5525834095373225
0.208,37.20875292529766,-125.14934976769055,35.792246821619514,-95.12943340944372,14.262004745501823,15.864841209798884,4.166947832880441,23.43472733867099,190.84613074191736,-162.68128174362457,8.304565423578534
0.216,40.33743197561815,-131.888580563506,26.6504649708188,-111.39166931356844,5.488261725335005,16.495399500406737,10.231202377982147,21.555112027466432,199.0013761897215,-128.55867697676103,18.06874141652563
0.224,45.11179847757104,-118.3599193246453,23.996929807196757,-103.16658215429334,-5.747705412996268,19.29716946746041,17.27892445671154,34.98687567561729,208.05554124759973,-107.19670979327638,33.923221945231596
0.232,40.456973111849585,-101.56806627321976,27.21359579381059,-69.98537910101527,-14.312282306164857,14.514378367155004,8.691147354855703,48.26358229063805,251.99554328575684,-74.46932503351944,37.901725651096825
0.24,43.12918363139494,-127.03341903283854,35.70904918552739,-35.21434750892914,-14.711367845239357,11.851963355245193,0.3229192097436251,51.39817284662207,284.2125186701443,-46.53226725623735,29.394144113234322
0.248,57.36819584337346,-194.73097635752498,45.419771988813814,-21.578360372823234,-6.9456303120757985,19.851852359381446,8.498887475454815,52.751223880594985,260.4145211366899,-43.57857611443189,21.994730153192105
0.256,62.89450364437281,-248.29065710284883,46.77879807360608,-16.804694710502293,1.1297333682483064,23.112486590000117,11.539696788738476,54.50169205333841,220.64126821878656,-23.75703442338321,13.043366405499087
0.264,63.64854228275697,-267.406310733539,43.23109578460207,-0.35228313923327365,0.4370259385985631,13.873912276671426,-4.516711326081598,52.73311027551374,202.7784598824377,32.38620786112233,3.2660764698952867
0.272,69.87644250899456,-267.91571005611183,40.672122004421084,4.416093309639498,-10.48667845365426,9.050449622668854,-11.23348945871516,49.260007753582094,188.87068652914758,89.73274734336871,7.294655824344914
0.28,71.86737095267665,-236.510881474989,34.5867122378814,-21.385216181182887,-30.066498068159273,14.934458624183097,3.5736536424298038,47.39825743500952,157.96987010747605,160.5260043188368,19.829452650726168
0.288,69.68201618121752,-173.61552627855954,26.74226153416475,-45.90602681275733,-54.665176820292615,17.599140930911247,12.894212963105456,46.24156008915463,109.17423941170519,261.96124680676866,27.74440669280624
0.296,64.71010637597757,-126.13148071159976,20.19888022011521,-52.65057490067524,-67.1647703527874,13.627093938190958,11.037913613169696,39.33629832166822,52.732464758631025,310.0375571413178,36.3102286997734
0.304,43.48777164013116,-106.2272165545735,9.663468568950531,-57.478952172386315,-51.92221853322417,10.780447819906156,14.666460627436516,21.939827677830486,6.647744643496278,239.71380409127966,40.485711400309384
0.312,15.80175127498279,-80.56643940927103,2.593072896433795,-50.13544782042375,-22.692342667681448,6.663649068094946,12.676628068730302,2.3129335430667832,-19.86035678478627,119.73932561075817,26.59275695976207
0.32,7.546543800673617,-47.29968457767951,10.745430989330146,-26.21518365390128,-3.1391390523617573,-0.40762781174408236,-4.300894038473422,-8.543588739528975,-31.070750437212702,25.149332219994147,7.530575817824379
0.328,12.210400360010844,-15.924962523579074,20.45690927383179,-19.064534355742246,5.885347149759938,0.39314784427471144,-8.569039103811058,-13.85711195719951,-39.00934758764722,-51.32685984122054,-1.3815240590578874
0.336,10.183605688856119,36.06021610089398,13.748097501094488,-27.30257465978433,10.658531497342734,7.904336310185488,7.715089734717724,-22.52618066605424,-60.95452078419289,-111.65683915663128,-4.16416646637298
0.344,3.5852223783746093,103.47833780813961,-2.403878752106606,-19.00441505688953,5.748366577974002,5.078912840000102,12.707247392931789,-33.672882150750134,-92.97248067432389,-124.9103142425864,4.0252940567103535
0.352,0.5056988431282428,146.6756456439751,-12.22111038637987,-10.23620503409433,-7.851325878869426,-5.723496670867263,2.3827469913670862,-37.40089307945949,-104.58293840552804,-109.07029468734004,28.26056030195732
0.36,1.585183779297113,174.8096431942473,-11.57845824128822,-21.32913342417316,-16.618114556794616,-6.642563644489099,2.0071653514984837,-27.82614853377762,-81.7161043135417,-130.5980125204968,49.02966016051615
0.368,0.9259984933285874,213.28951969175444,-6.585693581269368,-22.417919501281617,-15.164497461881044,-1.1463694236786424,8.327281875672824,-14.927995376059489,-35.52873795529206,-192.31622933843698,51.26434301464622
0.376,-7.761527629071079,219.1354059031671,-3.0137538875741123,-2.625056639160585,-8.616656258537082,-1.7690221458265032,5.740269064485372,-11.063430722800563,15.564935725580822,-220.83180867014846,42.484868501522186
0.384,-12.400641444354227,157.10563144502072,0.506590516906727,10.95250500926767,1.1207991729918958,-3.111640913723324,0.6821058281701979,-10.513911762479966,41.36035611237634,-195.30315514908324,26.43712588354347
0.392,-1.6897667767257218,79.86250955833212,2.6778030932445223,18.34535141078085,11.64237606587404,-0.4892457626663855,-1.2746185098225915,-7.323609887680322,29.15946243458405,-148.02439697274485,-0.5465522918617813
0.4,4.014566692558555,31.986512971126604,-3.9521356656825306,33.34414681964959,13.222794598663631,-0.9204573422249994,-3.2220401992896037,-9.999622884986305,10.641696890109545,-53.331216425145016,-27.993199672350983
0.408,-3.755447065681269,-12.052024271056816,-13.610205903964214,45.630313121324136,1.951871617970289,-4.428102844293881,-4.073937353579652,-13.495412025253794,4.270469136594093,98.09544303412207,-38.139538331662585
0.416,2.384126329464484,-61.978460323648875,-10.81308195310448,52.1491767678328,-11.58169674273125,-5.85725209223598,-8.107940532988716,-0.9925185201333548,-13.074425117017338,214.22901895839524,-32.87532661949326
0.424,19.777069594905765,-85.96546285982754,-0.21181380890910304,61.517761143529604,-17.26689397379396,-4.92444394051663,-14.129943341134586,17.06982571169375,-44.25247281435168,245.46492547884674,-28.070594718155604
0.432,13.642950253439436,-78.27631695179623,-0.7177926448493235,61.03179593560414,-15.808172903228968,-1.3732438723918754,-6.1502867537982935,17.586506675340264,-59.96126123544004,233.97760716142085,-23.64110469155663
0.44,-10.241033767351066,-58.13438022198809,-11.826147186471779,39.64720210228754,-9.102628343439248,2.0212363458190903,9.782622423918504,5.069297606146062,-51.06815998919954,184.73871362237585,-13.703980399461903
0.448,-23.98705624952082,-28.341041797411027,-16.121023336371408,18.999547451843963,2.930754226043797,0.063965471069474,9.466713920590594,-3.1825299164384284,-35.0461662578373,93.5090110134598,-11.39625933581556
0.456,-32.78444107267163,10.684726299916965,-11.7927767118406,17.243948561281822,14.815985225974835,-4.702985565532397,-2.0063269300996667,-5.863269973540266,-29.560570707171436,16.381406055189906,-20.336027467982216
0.464,-43.82404197662531,44.018121934042554,-12.953616803654151,12.709781307703558,20.618348159070425,-8.569028760914117,-7.317787926515049,-10.080607988659475,-38.59109846104227,-28.34312938357551,-19.727646644438046
0.472,-42.54693922913089,62.54642411809881,-17.635402296826975,-15.834468216757541,22.272819650657286,-10.489113306087072,-8.332194987733276,-14.885902789041985,-48.276110520103,-79.36791349249138,-8.171814330617849
0.48,-31.111403869150383,75.81651106256841,-12.42220491331361,-38.008838941026816,22.91805736877596,-6.507313729791733,-5.462081272636021,-12.907059890472738,-44.89832478946173,-132.01759929959428,-3.287892466853411
0.488,-28.88364045140177,97.82246743980232,-5.846715042260964,-21.26674356420929,22.60758416191711,-1.4598906519174055,0.7031505859806152,-6.729807545518592,-30.425439475010002,-160.4496680369218,-2.8757016698503475
0.496,-34.26103602703321,128.09475622894078,-10.693780132094505,0.0757505929520825,23.126981916904235,-4.982913317677565,-1.992626801141996,-9.133410141057642,-9.28013601571159,-180.32231666963366,-3.1156013757704755
