time,C3,C4,Cz,FC1,FC2,FC5,FC6,CP1,CP2,CP5,CP6
-0.2,45.72803980473976,-63.07181301018636,19.71445557806322,25.89792927794935,-24.300860272188118,0.5782996026149634,-6.549792168389284,4.188653886498366,153.13252261576832,23.113521496912874,20.216919486212046
-0.192,55.71378038378923,-83.15438796502123,24.974927654626704,12.227734050885076,-27.700713345225864,4.169798424910178,-3.672554435523763,13.033545005072536,180.86150732100273,15.77529914962438,27.854705938382846
-0.184,52.68575865965231,-108.4133491915205,28.65549176130747,9.093477959305451,-21.278897029320667,5.937646285087681,-3.325290455915247,15.440733981264675,172.5893931260332,18.33221078835626,20.453582097243306
-0.176,51.34070040395578,-111.23230526187615,30.43433463096127,20.568166205326285,-14.460062956076987,5.171691148079823,-7.767395225751991,21.57580991532377,152.38090362394146,14.636658327931922,10.193293899829463
-0.168,58.742029020712,-118.08733554724934,30.13120873852422,34.89968758752453,-9.304043860324303,2.9318753322617104,-14.814320814298746,34.256374466014705,135.6816308546838,-0.30230593017602675,7.6841048895923425
-0.16,58.76098197514328,-137.87610748392956,24.14207629562587,22.30564531372498,-5.10849889653063,3.447798937150195,-12.729499818519178,36.49969376983172,122.26917674394488,1.692710659123925,6.720439057164817
-0.152,60.52173907876766,-125.59697307812542,15.211261927011392,-3.22837402471649,-9.151730062330438,5.797983719398392,-4.994678549178407,29.588607145880708,105.20848257253,14.625958766026088,8.327590968906067
-0.144,55.50592166506344,-75.90470987371954,6.333385629981521,-2.107872077035761,-15.527291213352836,3.6751773129066794,-2.746110797443591,24.302434173562453,78.66900048663327,16.848458492895748,16.43469725916049
-0.136,16.249514136863805,-44.78216109993101,-4.214324658372419,2.6524745465176145,-9.931540538971229,-0.9295018776124307,0.4204348807853423,9.304358316034962,42.39297888890225,30.035622906409923,17.45963572524651
-0.128,-14.416806802666226,-52.50545278506255,-8.392416618053133,-22.646492432316034,0.4175723658870769,-2.572747242843586,2.2877666143877513,-13.52318800680307,-6.342079515633699,60.7728913969336,1.121202244283687
-0.12,5.696055920145353,-67.61328532217661,0.6320615077764374,-41.51319102819739,3.402095587250987,-1.9226030831439964,-6.203358082081862,-18.19289807711764,-67.6180673416164,70.56171535188159,-15.758080138755187
-0.112,18.036350250274843,-66.9168967305552,7.827280394401305,-28.115569667562077,5.720118555562067,2.0612164516849463,-4.344581318545614,-11.407845158066975,-124.08457080813581,55.43217752942752,-16.008547410235472
-0.104,-11.324414101433803,-33.677597788851685,1.2191056820463377,-16.11172137590829,9.594005920370899,7.764069432607213,15.209612015927382,-19.980566082913178,-158.4955462700703,44.74882147314513,-9.163672605611056
-0.096,-25.794400514386297,40.901271974808516,-8.590701008943345,-16.621425985473852,4.656228530869783,5.597474045780766,19.089210777304423,-32.67281593351842,-171.90971175227602,33.9294200460176,-5.909725619166909
-0.088,-15.803509116486413,116.36234980393844,-13.9322273485487,-11.417730072998626,-6.179325295558136,-0.9382335299747538,8.958319829716618,-30.264231842306078,-167.2270703372536,10.87101445554654,2.854326234509958
-0.08,-23.61369311933802,143.84290180871383,-17.009573351492257,-7.29169348833762,-10.570046492209332,2.3852723210800746,19.039249812112097,-23.323571245987317,-144.9097331684963,-8.788262658741075,17.66305428935359
-0.072,-33.24680578577951,136.0319366770772,-14.192858977810115,-11.12780429661934,-9.35336151089003,9.559480285998252,32.15752950990769,-17.08900228933606,-114.58793255747531,-17.722197897506913,21.512325360826456
-0.064,-22.862347215519993,129.2241920710803,-7.1050334631434096,-11.74530983611018,-8.296621446984584,5.6870854996091795,18.06081529186593,-6.271791969921661,-86.42681909138226,-26.417148800663735,14.366193777618149
-0.056,-26.3704203849355,129.55845837550092,-7.1355607267316135,-6.94821967214895,-3.768630436792724,-3.1283181980545445,1.1352424427561296,-2.0835988116466484,-65.83402811803433,-40.1343242069574,10.518967640222158
-0.048,-47.31363171134872,130.70754147253118,-12.872676176169989,3.0516767920178083,5.9203897749092524,-5.672994990566429,1.4836474530798605,-7.698799505673522,-51.785133422379594,-55.419150346086774,4.197648893498504
-0.04,-44.30070388019135,123.76173279066245,-13.529379433010224,14.635810122088321,12.576457303709281,-5.193435800533365,-0.7526756248298646,-6.7887796308482296,-28.056102511557228,-58.302944920953486,-15.286581075767474
-0.032,-24.540031629960815,96.02197652737298,-10.399207695570846,10.878539819558629,13.60464015551269,-5.393172707262588,-8.895587794950673,-0.19214884790451248,6.425212991459062,-43.24944066624191,-33.39441814065982
-0.024,-27.866167995111297,54.1355233618147,-10.194407731251225,0.28441994021815004,18.05772152823308,-4.979718857449362,-8.251080116117029,0.3052294516974313,18.158676914809554,-34.22147000192824,-34.216823138526514
-0.016,-46.81219390315462,16.594729746154496,-14.14907361300968,8.02705933701813,28.446309553988094,-6.790452058687627,-6.127413813137273,0.25505945963572796,2.771379332558428,-42.29538742649252,-27.056465079267415
-0.008,-55.17526703011059,-9.705775707122193,-21.593328905596103,15.231578566766983,35.744662413274504,-12.208993306553657,-11.771738845437527,2.223059396714012,0.7099604717341416,-44.91709340659749,-24.8735946447843
0.0,-59.54047810868438,-18.60446376432771,-25.964820092622656,-0.8787955614766969,36.7914216671881,-15.034697146487707,-14.89575076772318,-1.4843215654877506,16.025968950309657,-39.60675457788755,-25.910779909276233
0.008,-66.60952210910962,-9.342914560267067,-19.481072761367454,-14.054337967178899,36.90862399862195,-10.713648804373946,-9.4329278308316,-3.2659525639041167,20.250888812670592,-42.58683182273575,-29.098228973751404
0.016,-65.49128862439339,-2.1190288605909338,-12.281538738002306,-15.325659393472732,38.34916601128314,-3.9586506256804594,-2.6784631577765308,3.760928418588345,17.8068059146623,-45.47328277876205,-37.70974482422281
0.024,-63.25967040841145,-8.256307949106516,-19.571365441109883,-29.46851870150156,41.410870074794396,-3.2584573137840267,-0.6481599085115655,3.8928172063209137,13.342355144838605,-43.92938052174042,-43.73634297508758
0.032,-74.7299786899084,-16.46015837107208,-32.415521327751854,-41.06327643492822,46.94302543431041,-9.101784081738044,-2.8401528706941424,-9.282675307991724,-9.181648111071365,-51.20961052888094,-38.83406203154341
0.04,-84.90933222833242,-25.00013112644483,-33.36984821509042,-25.277961287551076,50.64327913294092,-11.610063374665964,-2.7393290063616074,-18.312414280532945,-31.809071942885573,-57.5853868243081,-32.4865406832161
0.048,-73.94376354305395,-37.634538151021275,-25.866914935296915,-9.012127157642809,47.45179163868087,-5.398124690281844,5.156931221514847,-15.981756976936037,-31.964912107345672,-53.369308188060955,-30.932660842659086
0.056,-55.77919803731388,-40.761446912008026,-23.015224896157942,-10.257573199744396,42.060889678096565,-0.2262436043087336,11.790566677321463,-15.111797919765872,-37.97284565385728,-57.56122359991375,-26.5251900357328
0.064,-53.55579286706361,-27.693794014518787,-26.670831169175322,-7.639679661987646,42.93475246778427,-5.120865475447983,5.195376647833494,-23.269041046061574,-67.40686367034196,-68.75673696273208,-24.853622810543907
0.072,-60.13105735590875,-13.057660979339985,-28.17115443586602,1.3127735109808085,46.5831660821016,-9.954910128063995,-2.5142643120148525,-29.973975796542614,-91.08792663549885,-65.78689722654929,-32.97687998766869
0.08,-53.19306970735424,-6.107648280404291,-18.92957597277357,8.15152496382115,41.53905187603614,-1.27409284935858,8.356798570662612,-20.514101335277267,-96.72473479507748,-61.21017130755746,-30.376934032500184
0.088,-37.027312346805104,-6.610310403844361,-4.814438075827978,24.089458616378135,30.584741675402142,10.734708970004908,24.722075352171373,-2.145932357829504,-98.24894864441795,-71.10593154801691,-8.611203124462854
0.096,-35.22640367128549,-16.821601199773035,-2.797781376653613,41.76472496938711,29.056964972268187,7.17222920649269,19.663710329966637,1.1018260563300126,-93.35466875213314,-80.04482885788958,3.7659844400482965
0.104,-42.86366690072152,-31.22802749495795,-11.144910314581914,38.898491951337625,36.25371095285569,-4.275336908648297,3.000131902871573,-7.516328619100057,-73.07780682922247,-86.7973248633921,-2.0670429748322685
0.112,-36.05227817333565,-37.23921895053068,-12.02341800679681,29.233387286319445,37.26269061323043,-4.647146441057782,0.47852422330317673,-2.0366873715238945,-42.32308015374496,-105.86175015896315,-2.3762912471876794
0.12,-25.418083972943325,-32.59533570740755,-9.092313852543157,35.25960954621121,33.494252255186844,-1.835449228470819,2.508392747062688,10.372150352394689,-12.154185906286536,-120.70762110716218,2.611785277392652
0.128,-29.47848603186184,-28.026113815131474,-13.454764191283905,39.71744969548574,36.002386996790406,-7.169209137334026,-5.8811430589357965,6.710688107401175,6.361454318038091,-114.35593662125181,-6.946798422363042
0.136,-25.205951675098593,-42.9460150793607,-9.127521952646857,23.968636015185545,39.68973724479235,-3.9325429803722827,-5.021625792494871,4.171552180983231,7.519507556254197,-108.42745213260281,-21.496285060006397
0.144,-4.308582761911744,-86.21854451023886,9.708082269236579,11.774514954340319,38.42445853342337,10.753251598886058,9.659832128127778,19.760433367047085,-4.920285515023269,-116.04344265796416,-17.877471207679267
0.152,-3.8796138106984506,-127.80787129678832,14.484897639492626,22.641179233195466,40.54605159744416,9.535288110021039,7.413982191901963,25.444161287890548,-19.554766144447395,-116.25006837186463,-4.947755787443615
0.16,-22.98267575636786,-130.63384500471525,0.9752430260651398,25.935331728727654,46.35477803103533,-4.070024207094384,-7.89300370152669,9.095461363238146,-18.072640719913036,-102.14853418680204,-8.989246488533398
0.168,-23.759908521875985,-108.76127317770765,-2.1588382653908047,3.5181273128635038,45.74587960707418,-0.8559674897752313,-3.1188511054545542,-0.3449575208506133,4.60771255575648,-93.47012712941492,-26.33649866067713
0.176,-16.61471879116171,-100.83515870280361,3.879736260544194,-1.2873807313961414,42.60090357835927,7.9729239647049575,8.54669544923262,3.010157582208437,19.51822196184364,-97.16154482101275,-30.252870001696508
0.184,-21.5287298511207,-114.31739900236722,0.5200254134604478,27.704915594646288,45.19798054888892,0.9034093642155002,0.8009488422061442,2.092271570033922,-2.1866354697920105,-101.38632860278297,-18.727663717118237
0.192,-20.121056150829034,-134.462333256945,-3.4024680558271743,39.8090265704439,48.439838009875025,-5.4563089781904655,-7.8918299980701825,1.494332137316762,-45.70874488523234,-99.21638949560781,-11.156605832265774
0.2,-22.318527025645768,-142.82539640350544,-3.352404450173778,25.83736318933988,49.92707880331641,-6.016608749830503,-9.437652162780465,3.2157019546049193,-75.0322175596631,-91.86461900883019,-9.507790614138138
0.208,-44.862106721822876,-125.13479296148084,-10.129384102771684,24.357470804713206,52.457557730668526,-17.653725253931764,-23.847629468436175,-3.817313470132877,-80.3292126452684,-84.6191153142602,-6.66244098715347
0.216,-45.574237656097,-94.53932928290156,-12.895549602450462,21.10536176339181,49.50406750603755,-24.530501137025215,-34.80462456252918,-8.8433613198679,-81.9755656566317,-88.24693907249936,-6.460926250704158
0.224,-19.26621387595116,-71.7692933640006,-4.620011398886035,-3.760372265372932,41.568890882002194,-10.368964038432507,-17.962048029330088,-3.980089437232397,-94.2079943756249,-103.49082292631907,-9.303906589724573
0.232,-23.56136348451568,-51.50519766133006,-4.6495504687420945,-13.00283472986415,41.06623656664383,-0.05665063369195412,1.1518447232523636,-7.7820392826948535,-102.89013572057937,-111.25884042280458,-11.904541730124581
0.24,-38.36667387071213,-35.74656457623961,-9.923367761426695,0.11552556571209242,42.42664672712318,-2.324537750459437,2.332795226573108,-15.732348587898136,-98.9165199075612,-102.50548034314592,-14.81077443797106
0.248,-11.24779443529697,-38.59031664247009,-2.6867895656246956,4.889171116470412,33.21732662328036,1.0379120302841618,1.7572259256170972,-6.245325738623726,-101.11176346078558,-94.10766214855407,-11.06212449784379
0.256,4.936089497794925,-35.331988469181375,-1.4909846248341516,11.686989468686575,26.70982298358238,-0.17061909612767234,-2.3807236648480226,1.0365161651677681,-106.76694074476373,-92.74759217182157,-2.8585242817114604
0.264,-29.599426129281934,-0.7047432374577529,-19.41423562505274,22.172404795489722,33.350714528336184,-16.098384057704497,-18.584849378118236,-15.065256198079695,-83.94105472121744,-85.78883243525668,-10.436635200850858
0.272,-46.653744430903664,31.149510058762935,-26.538979389268643,8.832672671979912,35.055545173817166,-21.335082302036295,-24.514440355135584,-25.362444899018115,-46.12341037269765,-79.12837129198051,-24.395564738481475
0.28,-23.566011027941045,31.43481582404735,-11.595988331887787,-1.9342750150582522,24.357384953704784,-10.13708699424409,-13.525458696741122,-10.795646186182665,-36.605775936163454,-86.01841449144081,-14.42067295085803
0.288,-14.755616235323982,22.3547915944853,-0.03748499488068011,17.07683988908258,18.235760536468575,-5.738025504605856,-9.367660894801581,3.1363737228431785,-42.34249358035174,-89.78412063456105,2.052423585273708
0.296,-18.35075410062537,14.088416704703059,1.262600150598153,19.37026040749491,20.254496517527624,-6.300117535725787,-11.653295563852602,4.418096535240066,-32.26680759288689,-77.01615647474623,-5.318334774898898
0.304,-5.468315940368115,-3.3072525293655937,1.8649026522699583,-11.094714839364526,19.122513281160856,-1.2966545157526934,-7.061939585600971,4.868921201782281,-23.245116672013964,-67.81447208872575,-13.399814909808844
0.312,2.3928091920772565,-14.515191465268638,-1.4021915898900352,-25.294950953972975,16.11972363856118,-1.1819990934864124,-5.425500762368456,3.7762560968454277,-24.46948474735935,-71.6852123904222,-4.113298627469255
0.32,-3.20198368270702,-8.474171888981777,-4.868739102237129,-15.123014090093728,16.624810207221685,-3.631708189909932,-6.905487041423055,1.6716088380678005,-14.180982535336788,-71.87887903498643,-3.5236214523054543
0.328,1.9800274036169034,-4.067291755313319,3.129961289242222,-5.799561392000206,14.405275294601953,4.685986666063734,2.667530639043802,9.534114698710862,1.4763903028373189,-63.739577215087216,-11.434804101486991
0.336,13.17322910770975,-7.173734374535633,12.617361128610296,4.081745405845517,6.949553051239246,11.289252925615596,10.284011245846258,19.34082304211998,3.3150178175129894,-55.711497100061585,-3.2372045920541583
0.344,12.69205684694991,-6.576588780450592,8.407197740158509,15.027926703765825,4.32138825734641,3.4129521593190906,0.048128916206850295,15.921308878537939,-0.08489080078321272,-49.084310855134724,5.166730564848184
0.352,7.03404333944234,-9.404152723432727,0.5280883034513514,24.221694159411413,8.974770636859876,-4.746177738544711,-11.014008658271878,8.080708860633198,0.7802069796676777,-40.775465635170065,-3.1511495833357284
0.36,4.526044253841372,-24.58275358140244,2.831202010472922,34.837978553054185,8.611869039364842,-3.5041766990199394,-8.471044090499696,6.984601606623049,8.452116082890381,-25.283437877670877,-3.690336467016801
0.368,3.3225384268294955,-36.75392315827398,8.813578327540823,28.980533056282354,0.34279846068791553,0.41186634573163233,-0.8695157496013106,6.527039851167214,27.160961198277203,-5.515136898506919,9.094910335621007
0.376,-0.41699753843898474,-30.7206134324457,8.454459883795,10.17220398011471,-2.4787143717019187,1.937179446744151,2.5165579197663988,3.6557919696339285,39.54632742739425,0.5834381872895649,10.230032234485929
0.384,-7.496839624750052,-15.21756236111728,4.18099807500286,18.54210539499629,2.3475893001743997,-1.754122963803303,-2.658112478847788,2.64956760845369,29.81879149119025,-6.216547357552041,3.1862046211074544
0.392,-4.78273425128758,-8.690667745656278,3.6745652189911424,37.65516577787109,1.256378788114718,-5.237472824786091,-8.419932857422602,5.105088212179098,20.172437372350725,-3.9592660181363524,5.319050753136596
0.4,12.805915097992292,-15.983019799459864,9.100951007371547,24.846247704910443,-6.0660117918538115,2.698717533002673,0.8290371586442001,12.739807033174504,27.34530610098876,4.419263187879835,8.48624845330123
0.408,18.09961294302059,-24.787772721897593,13.823063456494182,16.148400398951267,-6.342594155046944,11.217048190308573,11.933081150500787,20.13261350262538,36.309522635005145,4.29135033479329,4.948539490783432
0.416,1.1006460546405743,-24.728135195776606,11.522962983822119,37.60853700035377,-0.6169545548208667,4.727101141070146,4.1295577470746085,15.470366046823026,40.398728013222815,7.583521163600372,1.1915388666768816
0.424,-6.786448787061423,-19.343274107250995,4.789835276784053,35.07142214847067,-0.30342748414225884,-1.913807956341109,-3.301148202648476,3.1668422367951896,46.702215864414455,22.38239709312612,-3.1771664372245096
0.432,1.2956164178963037,-12.57456476145596,-3.2941453704150443,2.17156680530491,-3.4377955671103093,1.9758034611365187,4.3565997408749695,-4.31804144596743,53.55874120712274,34.03533913603577,-11.01320930188023
0.44,2.2856873691407857,-4.9226760031885,-10.747752176393561,-8.260207834515919,-2.4079595630650017,1.4636023971530077,4.855129369414265,-7.600486883486687,54.9616790771693,39.10541342983367,-18.64218467074992
0.448,2.143136225952627,-4.685552203884584,-9.296333791581183,-5.621222087469827,-1.9102313111588023,-1.5727427153288172,-1.8965482328264,-6.354597283900046,48.21125075377125,46.60705925525301,-21.668600083449448
0.456,6.838208067785814,-13.793624959047124,-1.8531941487390247,-20.166371908651442,-6.799090564957833,3.194587808303691,3.2525938429995924,-1.0005109245351962,40.06307731996717,56.716744865857294,-14.643481826011504
0.464,-5.383433785320872,-16.767291487965636,-5.7654119538519915,-31.721205516479163,-10.00346832275,1.2292839617132427,5.7695084449816605,-6.034070919836389,39.64986429158183,64.74837264909003,0.25788846966434076
0.472,-19.388650693389554,-9.623650222931579,-14.09892052908575,-33.83423118632197,-9.59240365299629,-7.379977461271673,-1.8744889393151702,-17.245591467966303,33.80288783328797,65.12567409990667,9.182481950123332
0.48,-0.8757528782578289,-6.83178915249773,-4.825136254684951,-42.65110833380501,-14.358678187372915,0.8920996819173891,6.028748824570092,-11.459041995047887,11.550728042374772,59.807545857522484,10.023474403960867
0.488,20.22961597784635,-8.862176366053415,7.605810961562889,-49.119891963276096,-22.77607663084281,14.970265049132408,23.00315391907357,-0.5033072920902119,0.4607283162045825,65.74510846209168,12.950430353776692
0.496,8.038440896244182,-4.107030099915591,-0.08956760630095374,-49.07765903946404,-24.49135944748766,7.931753154596336,16.678010523157717,-8.349538220531455,17.30525544382163,83.65551032551478,16.078211434635943
