time,C3,C4,Cz,FC1,FC2,FC5,FC6,CP1,CP2,CP5,CP6
-0.2,23.912898371860944,50.93046314417818,16.017090066639057,17.255804595652695,-33.58236679985853,7.176314996380058,14.298264885445308,0.07807566764692064,99.63481577950228,-32.44111007712399,49.710681597973206
-0.192,17.219389509334455,49.651864650786436,15.622736916949147,27.9990784780791,-24.855607072250972,5.991959526556274,8.954288639239493,1.5731044504323155,124.5783265096304,-23.573072489839834,23.767059550431906
-0.184,27.755062793654037,28.72073686202586,19.140700207621528,33.67064694533318,-20.521935094357136,13.094110459968688,14.827908644152838,9.263199661237262,141.7967510260348,-9.612358766823753,2.377960935761482
-0.176,36.08037817360413,-1.86325872962112,17.02401758306786,38.98370007679045,-19.355847083034792,10.643770777126097,9.591086122986404,12.082415897630076,158.83027590329604,2.6723589203138776,-0.797501898894257
-0.168,33.71282831130588,-37.78882296450126,8.721848668335307,42.18625847624054,-14.309456571546542,-1.2856138856886432,-9.087454026378417,11.15411648558482,156.7883608336647,28.831853131497347,-4.985195694329181
-0.16,29.23893923054235,-71.61453430731008,3.908949167941558,42.98287240171386,-6.791921262475825,-4.442981876230979,-14.277397737302584,14.526011443697511,117.77285405830919,55.15680493152426,-12.081937067083452
-0.152,21.006496483023813,-80.56343191878976,3.918681135334677,37.25042429749856,-4.351070906054717,-1.5661921082713768,-8.152141405243665,18.140039014114695,83.49771964358735,62.5455649584246,-7.754266473614584
-0.144,-0.06213401523759787,-54.11438836534676,0.3574217953941343,23.883736198549624,-3.8098152208897846,-5.061780708255271,-10.31263372904104,14.246993724017104,92.81178282927154,64.4043500864257,-6.907730629798284
-0.136,-15.187080982208256,-25.897624066153043,-4.847284137569738,11.453038375523022,0.8525038627611291,-5.834279247089037,-10.062632890804668,7.559278885660438,106.02687388102422,63.12714629750767,-22.29168262359634
-0.128,-6.489258760661182,-27.540424894146938,-3.2543886791366967,8.200337862340382,5.1936931836628455,0.5695672257428374,-1.2581089043584661,4.8882987877835955,80.92874701604153,40.21346258656123,-28.292380653218647
-0.12,0.4751094552894176,-40.53175572928454,-0.9081321566155177,7.156724148210509,6.3978784983309405,0.7668885658961441,-0.4300101628505764,2.205757233341867,47.87978813963531,12.119413861242778,-14.834187388642086
-0.112,-8.816984594778093,-42.4187158511231,-6.014767055947798,-7.123059629891648,8.426178176979882,-0.11755132957217784,2.2918012170196294,-2.858461619444061,31.374673345536422,6.103125961276348,-7.944810250148947
-0.104,-7.000613190802226,-41.28611158664734,-8.575781606771239,-26.905936893811766,8.988697039293013,10.182895770608491,20.698782226696867,-2.5992089610655427,1.5122172256273039,5.163809835065148,-8.744183986779943
-0.096,3.7626629171228703,-35.33151257939896,-0.8937234459066893,-29.410298759860478,4.866471825954005,15.016575210485376,25.94445232076338,2.5109083083773185,-42.61606023947569,-6.713087218697252,2.7304816213316454
-0.088,-7.012245553895617,-10.406777568176508,4.650556165781192,-24.886606251330875,3.3076492343807233,4.754888407123806,8.456324169962821,-0.27949331399928823,-66.50717812624953,-15.919245939497948,13.144815746095512
-0.08,-22.295407795332412,21.512337267222918,-0.3062082755126677,-34.29819386714295,8.2316433553853,1.0498936746183192,5.053660747610509,-11.326086485958575,-84.05137965686026,-27.89449477986528,5.401146073596535
-0.072,-15.325813033129249,39.569882783634846,-6.605425205718105,-36.403935863967924,11.784493015088364,6.098852131644606,14.886781666870194,-17.339375561494474,-117.05962741383695,-48.61290489098808,-1.947968716857268
-0.064,-11.924110217177414,45.07403662861812,-7.517297577017383,-15.00413899498661,9.964479327327608,0.6699211825898975,6.4180198321969995,-15.241545401019373,-129.81224971960827,-47.736563973375986,3.9899857925471394
-0.056,-26.508264515887127,45.852214616945155,-6.0826041176925,-3.4823248088162075,7.420261507779467,-5.375756576217005,-1.7295263590862606,-11.736543625173947,-113.81808893797538,-27.07339923749702,11.394368048799299
-0.048,-29.197219245523097,42.97855957999991,-4.822548968933007,-17.665217885398953,7.312208281313701,1.9549323029830599,11.5280353422803,-10.646874287631464,-118.15186060503376,-34.44290212304331,15.78346968677963
-0.04,-17.923138424106835,38.534375079991136,-5.321832595408608,-27.999456876351225,9.46858912897052,2.8598664498219355,11.622139910050802,-13.006770257931864,-137.11016719973304,-59.43551522370552,16.948050218168703
-0.032,-17.45124563619583,35.26546565783575,-8.479774096940476,-24.472173928874287,11.379696049068698,-10.529279857293533,-13.017289465570776,-13.32378915427565,-116.78845997130266,-46.94601272226378,8.19512633006655
-0.024,-18.31424941384129,33.039441799243704,-9.669354455070115,-21.44842743699795,9.419443123500095,-15.027325711669537,-23.570801788284708,-4.27658075854242,-70.00248446187534,-12.059396268893297,-4.483042634135542
-0.016,-3.9123066680042697,27.424625487375735,-5.883291034875035,-15.54883455312737,5.327819473330672,-8.06435445438654,-15.90624303696846,5.634172825806021,-53.839535323329116,-0.1127855572270167,-9.260504735251892
-0.008,9.076998851343639,13.089568925784558,-3.3752431907080847,-4.55392635525882,3.8769193007320393,-8.528573972772024,-18.824487011312815,3.7433925064011175,-78.37673450590582,10.491001360202192,-10.095853728532228
0.0,5.179307949698909,-2.2862139231428964,-6.804345107240688,-1.820089750114956,5.3593956266093,-14.996746954099429,-27.942819208073047,-4.9710354651943325,-115.29936002997529,41.743957338800804,-13.021899120668957
0.008,-5.799076471642383,-4.668370352860334,-9.91879946726888,-6.629609032502802,8.197630610783829,-15.928020263263052,-26.450922344379233,-11.522584073156368,-142.2977381371263,52.52785301068261,-13.545776062823485
0.016,-9.362448058273825,2.189187009067265,-6.739505398012053,-12.84147344722963,10.503568618043033,-12.929069506004206,-21.17502336578507,-15.93035878402688,-149.17902682544303,27.73389618618734,-11.14218292958152
0.024,-6.672033616410244,10.10186311984204,-3.5199404725723014,-27.350035380873802,11.02635915649877,-12.024651689242491,-21.87833064789893,-20.284574033896302,-136.5769671014005,10.152688933074028,-14.987644899710332
0.032,-14.623135174293594,24.65493902171745,-9.950946870679973,-43.29496763207457,15.442957643417143,-16.723124675792945,-28.814640657648553,-29.405694340255167,-120.70300268236933,8.373955868200404,-28.96042017718385
0.04,-33.069908525420495,34.627941623572575,-23.47530550856227,-47.20825326618128,25.958742079050776,-23.39871759560443,-33.80080626467575,-42.919944960865756,-124.19615910046943,-4.300568920655496,-39.954218600654315
0.048,-33.49279166117948,11.813942077130854,-31.956263486151485,-54.17889766723596,30.20499738927523,-21.686171995735936,-26.076669882202694,-46.88933215758604,-146.88594832818498,-13.692644143052608,-33.395521570438234
0.056,-14.291380555523912,-29.147814883314545,-29.766866667758404,-72.62630710963238,23.578939230789818,-15.28479011569243,-16.821599826383057,-38.59918424752006,-165.38442082574159,1.561607246522205,-17.852118411534754
0.064,-10.30001873133034,-37.02359975742552,-23.396208491353423,-76.13362668680351,19.381917751126565,-16.47838572183866,-21.400782088828965,-33.539177751305715,-177.9205570155001,11.533953319443697,-9.418695827685328
0.072,-22.678053719798434,-0.8082294066150648,-20.872330625909267,-59.736674506041034,19.4211887567841,-18.9283805972805,-23.721527687801494,-33.974978632392094,-198.09324532456003,-5.845556890302091,-3.0433886811353266
0.08,-22.247877682322276,46.063945881237764,-21.947101037562515,-47.793101709404326,12.697621684519342,-17.47290127553589,-18.786200473307208,-32.50841055381957,-204.70607112459123,-22.059006079866435,7.115605163670778
0.088,-14.674858317733543,81.72431440447359,-22.71640166181116,-36.49924712890658,4.889367218851359,-24.693166636663967,-31.68975301328054,-35.02926395000219,-176.75576443826802,-20.71916412249587,7.011161648145723
0.096,-18.232910072798695,98.6973649297207,-22.82436106306106,-18.80657264557464,6.961708420262985,-33.29284276385443,-47.53374773254236,-41.17085020263337,-146.270155654439,-19.419553861210176,-6.647637338640305
0.104,-19.616158117899616,87.26732830143993,-21.800709009693986,-20.608240363402267,10.92548759771901,-23.708229067536028,-31.98339271427381,-37.38467057420675,-144.4393701405661,-21.86537537133497,-13.526067530632693
0.112,-12.520524256500284,58.76612014763399,-18.443306652549232,-38.38409690274668,9.6868077635791,-14.196712138568074,-17.446704640938258,-28.09680470749534,-155.03607882815342,-20.562515026806953,-5.322176903868575
0.12,-15.771837272156572,44.865255109622225,-16.401785134781292,-37.284369780387365,10.990288630373527,-26.70101368182855,-39.4617439071935,-28.412230054741816,-155.18083292590043,-22.819059572681496,2.0720524586088813
0.128,-25.33509980362287,52.19593675139383,-16.394798364532583,-34.284777707550916,15.18707883620981,-36.42416617344684,-56.38547100293738,-32.02944918155615,-140.78821598097454,-30.394504688222014,-3.035040782836305
0.136,-15.967496712592459,56.98836780123198,-10.069620067253751,-58.22633919068586,13.242204031409376,-22.7693456478993,-38.69276285345111,-25.83479374535625,-120.7729549997565,-33.55402212037196,-13.572253798328594
0.144,7.2076379333852625,48.01821001771769,3.116354442028044,-73.60337866326248,8.025238625045764,-8.524916741398158,-23.728568822931106,-15.19543594275521,-117.03960536283365,-34.464791282847685,-18.623316552204376
0.152,15.346989443870038,35.99593985202981,9.409515646404676,-60.69964208402946,8.85065555444707,-9.838889533311782,-29.622372862631966,-11.110285359877093,-135.18088626569562,-38.34750373408181,-17.35519820789791
0.16,4.358833980566936,26.626506449567675,2.166140039243435,-63.77849396720802,13.949102442978798,-14.489421953038345,-33.417951678092166,-13.549688020208277,-148.22963864557394,-38.96483755003722,-14.900529316636494
0.168,-2.4457914171031856,19.376339683696404,-7.052174380704036,-91.18142076295588,16.5766808459268,-13.99240357656537,-29.15751021992378,-14.543626174789374,-143.91337290861034,-36.704148030342516,-15.167204312459829
0.176,6.484567103343314,19.695924881021224,-4.675047023043922,-101.13263429248941,15.541746397348776,-9.754549399652564,-25.339996995373472,-9.078704458779306,-140.08700108406455,-40.86983615748246,-18.517517780126425
0.184,10.66940597961087,27.77919564077487,0.9178620509736088,-84.90467678725231,13.651501880893143,-9.644376801803404,-27.398143184046244,-8.445799702153696,-135.95093119967393,-43.38728547966804,-19.687981002819125
0.192,-16.658866017665922,36.88763552338016,-19.523405143526695,-52.39168736488257,17.18894370850207,-31.828875293365776,-51.311179534467904,-33.18260152204113,-107.57073738127374,-18.762765183894302,-20.947813550673477
0.2,-72.41360790668026,49.40452353996272,-74.37784662760609,4.73277863801663,31.741122296917858,-79.94273459384843,-104.35943813406911,-81.86202374529879,-50.242825077825515,46.12878291473784,-42.798638921618206
0.208,-131.0786897219884,63.57172043743381,-132.78861306565014,79.30023792683045,51.29530910648445,-130.37338173092516,-163.4475452764496,-130.52214658403764,23.0099958826596,141.40107015526985,-90.7693252922966
0.216,-174.57232634809907,59.34593692097593,-173.08353152703668,150.31369517899785,63.490159271473765,-165.421492683608,-204.4990535960536,-166.72994869850484,105.7984158447884,248.1577454298714,-136.20108659375558
0.224,-196.4619287842048,33.08662418272281,-205.44993189147655,213.1145639825018,66.94459152605826,-188.46417113550498,-227.9890785368883,-192.20264404877383,188.07396272682465,345.84826915980665,-163.20976015579583
0.232,-202.29613370482423,13.194905619712147,-230.18045759462535,269.72222090969774,68.62669177017222,-204.62073812667646,-245.83694782695065,-202.2563886618006,249.11815625562068,416.5356862553383,-184.0823636138012
0.24,-208.74675099751346,12.369659816558327,-233.81821435529622,324.7982246128018,68.38661027361543,-214.83086139729036,-262.13195409568,-196.1734539542325,283.6083841304804,460.08082908978866,-195.2176463807395
0.248,-215.10695074560425,9.3856570742519,-224.07278657855306,379.493933095666,61.496339349810455,-218.48186704816314,-268.55724167868374,-187.55261392406902,311.1368518452529,493.05617250964457,-187.0805021934478
0.256,-206.74516026456567,-6.699919716834067,-216.35044164356046,415.7082472567823,51.3138169531292,-212.60671299614143,-258.38281770530665,-183.71065606217314,344.5608313536665,521.5745076380856,-177.8037789948947
0.264,-198.36902923498258,-21.551580228294323,-211.7507618953839,433.9721066378509,46.345895305544474,-202.16740184874283,-240.96536572228536,-180.3118260789519,368.53307775294996,534.2778392133716,-176.04693622536706
0.272,-207.3973605034333,-26.92586280365122,-210.53521195746137,465.8544736065024,46.82357622686432,-196.83203700602928,-227.70236411624523,-175.25887702491534,367.78607759572395,528.013633364214,-164.53749466011118
0.28,-205.6910310516351,-28.76292552313922,-207.80967020720874,503.94914594857715,43.981946569496536,-189.95374541988417,-213.21824757053625,-164.50770969426048,357.6657379941468,515.0408744886855,-147.02696317883456
0.288,-174.34125182968626,-29.955578317028863,-187.23036172437986,508.79650982265173,33.21062673241583,-168.56322763484806,-187.62010040366124,-141.4893240490361,356.4029897278905,500.1685695647416,-138.12178685070552
0.296,-140.69674969170958,-30.04823385334227,-148.00780736075396,488.59867460626083,18.061993000720964,-136.4468817097281,-151.16819922936085,-108.59656133158794,346.94522824916527,473.95905867980525,-121.33233428496395
0.304,-107.63023150506056,-33.83121712632759,-104.52961599928044,469.71809167633194,0.9819025933472804,-100.38911197957518,-106.61557515751521,-69.2077943418518,303.61605235349276,427.8002810400905,-83.49451072515912
0.312,-48.668644856370456,-45.028208767602536,-58.69743497181071,436.65001076927336,-17.31008790546756,-57.82664075723772,-56.2090776321675,-23.63570573196155,234.1351164527352,359.62206909664457,-44.80369886325053
0.32,16.322064529573023,-56.18525644545542,-9.879557363320632,377.0054774807406,-32.303334843969026,-13.014029177711237,-6.300254162517334,17.509450617709685,164.51601461333777,276.5482646775469,-17.20246414767114
0.328,51.13356416445208,-56.34085835906305,33.672503377910495,308.62637213454263,-42.50135813468242,25.427152364217285,39.21615496205673,46.6447309545102,108.53998945694576,197.51828811789665,9.508569217238676
0.336,73.87494639777499,-48.71798416269473,72.67661846474857,237.50529253235254,-52.60187477228788,58.856332759604456,79.0024542707671,75.00039370350261,66.36848103069148,130.4626410651149,36.140629751878286
0.344,109.06217936433761,-46.53703963947034,108.14343905220241,161.16927838659072,-61.71608128101809,86.27022587252351,105.86653749206003,105.48451631244782,29.343506052514584,60.24287836874601,57.17610795355584
0.352,136.50508334453815,-50.608867598027466,127.68379397198677,90.24347195486261,-64.422088019239,101.5372868333531,119.41831903488897,122.72314125708834,-11.375618618900518,-14.100382527784415,76.64842317048284
0.36,143.75527795765373,-51.0716215372062,133.99031855016474,26.12153957941914,-63.947493165161895,111.65265785366822,133.45889234613483,126.4170553643724,-50.360216837972054,-69.60241698488191,94.18461800238187
0.368,151.08886095596782,-46.41665914335418,146.08825905506265,-34.66937608528517,-65.51566576852927,124.05087575964997,147.76508679711998,131.48384905479423,-74.6876601705835,-103.34368305383622,100.80711176819514
0.376,158.4202229313386,-39.307676244852864,158.0891504133957,-78.38923670026932,-64.45809713936944,127.88494780618527,145.23551965941516,136.67710767692623,-80.92751630682375,-129.78754116755948,96.16141976980336
0.384,141.87775786304707,-28.407316729142927,148.94803321710867,-104.28451896300469,-55.904293256873565,117.3323118350198,129.89305478342268,129.4726613445557,-76.65064540401293,-146.70488750983674,89.14267384292611
0.392,107.88112307952473,-17.76437324889432,122.39606969328233,-133.92408775008303,-42.707947516429314,102.80922564840034,118.22648729709377,108.2927617244317,-75.50856176850355,-155.55781826321092,81.93112781368359
0.4,86.5271539301445,-12.291509821891932,94.93748319953677,-164.89095012371564,-28.194816720970174,87.19472889653655,102.56367665552754,82.47607345232761,-85.71601827671806,-169.89185689092514,68.03179859340808
0.408,83.31226009627817,-8.049115283385882,74.76873445825136,-179.89397080169977,-16.397091105257662,70.18870132490727,77.74318931557492,64.84858323262628,-97.89479983033986,-180.771678662223,49.09847280138109
0.416,83.84223693594267,-4.222794875092424,67.20853757593306,-191.45712258122657,-13.30840013413072,61.585673836910544,63.21801257796848,59.4455260145485,-99.47824473644582,-174.6466674145906,38.97837005051614
0.424,75.14512815806808,-1.1558723400543967,63.070371524556975,-211.90403474367693,-13.975501216481378,56.24158996964266,56.876862546619314,50.26889532107484,-93.40308127994882,-165.92182449916484,39.949728971092604
0.432,45.92609409667542,9.295955320961266,41.40159850825829,-224.74026628605083,-5.079946888259198,36.77778336404957,35.88572817790501,24.440285479547406,-89.81671491958876,-165.9897537243525,36.434892485470684
0.44,10.40771092475199,20.25428742857878,11.618894841043112,-226.57890900994775,10.590731194096811,14.442327057073191,12.568716994169154,-1.3074097405155676,-97.92856795967793,-168.3411066253294,25.605042199505714
0.448,1.7966879044964048,15.008126825255635,2.506763245545263,-230.35336803293032,17.753801111834672,10.783209149325018,10.408154690007974,-9.221750333465224,-121.15537408488933,-171.33575882864682,20.838712799120948
0.456,4.550932021564146,12.971928714498922,4.707359297377265,-227.9490134937191,18.63400955653897,13.725232481636835,14.68891418674456,-13.015633122088895,-142.11479502045955,-171.11217596679796,18.208934682448895
0.464,-22.768035710675836,40.096937433242466,-8.751807537972992,-211.14767531795917,27.257899826608067,3.996014152445424,6.044531723209427,-28.448954915050322,-142.866766416114,-163.4675773365436,3.852678386502012
0.472,-54.01836589454968,68.98633350901615,-27.13357542224395,-192.326100571087,38.91769992154695,-11.886210753065507,-11.435888009205216,-44.55349009868358,-141.21967335737065,-163.17889025709394,-10.60108671616317
0.48,-47.7116724804752,68.60882183588014,-32.82907352629301,-178.27711115247072,40.51716076148946,-23.894639613943525,-30.30014353192289,-51.36335757741327,-153.82587536511946,-173.01656928171658,-8.323804169138027
0.488,-40.43999087688345,56.63727966272517,-40.60973556193687,-172.34641104699602,39.024403826159315,-31.013704207175255,-39.377090856399334,-57.70666058390731,-153.62652733940325,-164.60207633242254,-4.917821094985157
0.496,-62.83026184593176,46.7659900402037,-56.13115014774205,-181.77021200986167,45.33483285112168,-30.840921523154073,-31.444376809245657,-64.60935736434456,-128.46131055500396,-133.05987974063044,-18.425100383629367
