time,C3,C4,Cz,FC1,FC2,FC5,FC6,CP1,CP2,CP5,CP6
-0.2,-13.244911894619996,4.928471168524204,5.021384458183766,-66.46632348229431,4.419116493438755,-6.291985660802163,-12.097119781533562,1.809472079272699,68.1457610779135,-85.82379752738449,18.97976859779574
-0.192,17.979361704655055,-0.4646203668637967,20.810007773788584,-68.36035757446477,-6.524235455645718,9.131343530369502,5.4213442946021155,12.384298038931766,76.41275651591725,-90.8394493266037,23.738201080273296
-0.184,19.159598935892124,-23.260733207931818,24.22771408455218,-84.60728671100271,-10.175120185732244,17.232741032923958,21.43609589815366,8.719909201589347,82.80866210539203,-97.08806438332316,38.44462741210614
-0.176,5.126248938879017,-29.32701974801163,15.586937645071384,-85.2382777908761,-0.14441445641808928,4.878506598310534,3.061936274195087,2.215750212572725,86.77847426531046,-103.32480519468069,29.328486809710807
-0.168,13.519797195005548,-30.901756433532558,8.737535746959717,-87.44216151967066,2.3943879486675,-6.703571898015806,-19.41356608568355,6.653284605220994,92.29613018499825,-94.0385183048787,18.349786451037513
-0.16,26.594451654419,-33.66871065464574,11.927277754346344,-109.15525727327925,-7.2557084813005,5.927970162840353,0.36558706388713585,15.330226298046933,99.01823786180468,-81.091758762313,26.728122500192995
-0.152,20.476095209854567,-19.687221198832273,18.966893244290972,-97.79609768884022,-12.490078841507021,16.009100696320047,17.688026838274396,19.44836154010501,119.72325279390834,-72.65352085473137,29.517531337447082
-0.144,9.103848235635978,-16.76345496598244,11.521713166349523,-38.87557768217906,-6.672394868764107,-2.532494688251822,-10.96144512029532,14.243923198509405,151.39810275831425,-49.507974128479745,14.163719355785032
-0.136,7.337100937613595,-54.7675410978132,-3.278254016918395,-3.204227159757901,3.095224305809215,-13.747786763433393,-24.576270829304526,6.400947201496361,147.07911299517679,-30.68693404606131,3.538608287089158
-0.128,12.745980144118274,-95.27178675162605,3.2550174184500444,-3.4386909917587287,8.079551937252145,3.916812664298286,4.293035812989943,9.432311244568785,101.06445139387978,-36.518900426196325,5.493725264208925
-0.12,18.604188403173154,-112.59781176815991,22.400291117008614,10.374840786347022,4.667536221993028,10.780562161066237,7.934282552807593,17.31459931127893,73.21790174559128,-8.875274692209636,3.437000442064711
-0.112,18.39347334004479,-126.90624319084684,22.81884098016505,21.622814167124563,-2.247148791296696,-2.7671699678314488,-17.346142789773847,17.15484445218932,67.93083761572349,74.52908963896644,-5.03705310239573
-0.104,15.97694895821806,-118.77009824782154,9.542974990828352,-2.0328597807398596,-10.518002763571072,-2.3745327205377023,-11.511363474249789,15.275965337839366,31.785248942530416,139.9308676018587,-4.562368360732402
-0.096,25.09244489716264,-67.06373224658623,3.21154465163462,-23.200292784106512,-26.690931266137753,7.783593532358888,9.297875129484785,17.508908015671047,-26.62427343091919,172.3662084660367,8.14653876522729
-0.088,38.577874395704065,-22.74165349219317,3.7684690317357834,-18.28820594222199,-43.34242464477203,5.9441731555175545,6.00886855264996,18.186155419650387,-59.41007825631655,207.04763995909235,18.522213413856623
-0.08,29.319818680118722,-14.644777931818657,6.1257311467884445,-12.014903425261112,-38.59203005206842,3.9611372918909677,2.6150323494809085,16.54839891964557,-67.33024729434813,190.82938822010507,16.84661789107283
-0.072,2.5521526038005935,-1.6770535913928026,6.76798460967708,-4.483931381999673,-14.70990494863917,5.797348693166309,7.58849901147849,11.12720847183796,-70.26430942612093,92.58380557080633,7.511871302375308
-0.064,-8.825091236433984,25.743324405840365,0.26408668901479176,18.69179693850578,5.218943815063682,-5.043216454162813,-9.002112298323958,-3.6211587887794954,-69.14597218453792,6.829935028474406,-8.79206506976215
-0.056,-12.017915732248253,40.02984609620007,-10.045459257220646,44.48803636342832,19.122887210836446,-19.924255993048256,-33.55839279838213,-21.715991772404212,-69.89731810337928,-11.59008333834026,-37.65387916303019
-0.048,-29.952011336856867,47.50310389392858,-17.468735463079494,61.03362208501181,32.66884325495437,-17.36206366211036,-26.224241042350734,-30.685091096668494,-84.23299666073756,-11.281083552403457,-62.87966454092692
-0.04,-32.518820691429475,59.38239495036444,-19.465220391264968,72.09433590221997,29.808942899262814,-2.6860267827899555,3.1260773951436027,-26.874401631737886,-111.06295122124195,-10.72683961155469,-54.817863872428696
-0.032,-6.8184873103981305,68.8119814770233,-16.766642129195446,76.51590257983968,9.127972375862399,5.021468474713316,17.738618150256737,-18.95331752295923,-135.39739952721544,6.926879477867833,-23.133782361920954
-0.024,-13.457601219109941,88.66990475044756,-22.254484984841024,74.29113992910436,2.3056734939413595,1.1954470762409102,16.899664227030286,-22.48686355151143,-141.2497237904493,15.034939969524945,-7.864318624821394
-0.016,-59.51767364727727,125.08061857668967,-39.89419328921457,81.31758027006369,17.2786510029475,-4.588122964959404,19.86016395577187,-35.24446988914802,-134.3536712286246,-15.121501267686849,-13.887953981892435
-0.008,-67.17368407611397,150.2958128047026,-42.159916560424634,108.98687530178752,24.35237516066233,-5.73403743090949,19.397009789651353,-33.41561520546236,-126.73738247771165,-53.43679684630845,-18.367918739156078
0.0,-37.033187089807356,158.06875677033796,-23.62149841668608,135.18750686502,16.822288635161286,-7.824940083164242,1.958536924039493,-16.757654089755473,-101.95260665485799,-53.473451669576846,-25.749951093176527
0.008,-39.40421490959888,165.58448920289584,-21.326287542634287,134.8116984927139,17.676643827018445,-15.033833844556712,-16.657048596138488,-9.688478388798886,-58.794955546584355,-19.4240705154213,-49.398805973124155
0.016,-57.98885837594804,155.65814355137758,-36.62136821653725,128.5731684896788,25.97447547108628,-19.151000873645796,-19.318205751939175,-10.43695888687921,-46.21509873165462,19.739354702295856,-69.7681504308413
0.024,-51.11054929442501,113.34709945156514,-37.556143387627124,139.86276756255842,22.2146523678347,-17.874248142359527,-16.228811867468448,-7.675124865237609,-76.7304734234196,72.31308182304201,-65.37293364128081
0.032,-57.56099904288012,80.78722845620108,-35.75820256311569,145.5528461846811,14.088252065274741,-22.65681915002006,-20.737619047407936,-14.813536596129255,-93.32535801673936,136.48461616670573,-53.26953509873108
0.04,-85.71180368398674,92.02296410127013,-47.649508236333915,135.5980618500081,19.293494213882802,-31.380774452266106,-27.92799729285126,-27.083649172129427,-76.38672183518739,150.4066421983269,-58.91862863641596
0.048,-82.03267187240449,119.72602857685509,-47.32829576135731,134.45460944400605,27.65290906513378,-26.645537184213403,-23.77325688108717,-20.393973061537913,-65.04684504670341,95.33960276583711,-71.81645770869522
0.056,-65.77980358664861,136.4348609791619,-35.74405475987885,132.83407294037605,26.90923933265732,-14.019064087063516,-8.198226831914157,-13.23579344203361,-65.89570196762462,41.41061329570531,-68.37619213448589
0.064,-86.24624233902887,147.3765961992633,-42.07104704941073,111.5561326007816,29.43306997312191,-16.208837070003597,-3.9093316822834683,-30.3739478395133,-58.59758909008929,18.06752833152328,-58.73645420509182
0.072,-103.72146453979512,147.53486675663385,-50.7010787417766,100.45085820332493,40.74503096859726,-26.901973580226706,-17.757284827171915,-43.26996809935807,-54.7145777024336,-10.928290695680763,-63.705136054694
0.08,-84.9534212952334,125.83041020338442,-41.67997701318284,113.87432655842444,45.60182100130153,-23.865788719456404,-19.910845981483785,-34.60166857793975,-67.32810803627544,-39.710451088772224,-67.74303186357166
0.088,-74.09462333299899,101.69440903421676,-36.021346012806205,116.74529513337171,39.89982654083243,-12.77590959575167,-0.2593061326768458,-32.272069261952694,-83.19464531245738,-41.49034056820278,-50.72941803701758
0.096,-84.01331925185957,99.09529893077901,-37.81882042241637,103.89934970804849,35.434022270938,-8.921347584836521,12.321686549335459,-37.390408716151775,-94.77973146960171,-38.1595831630251,-32.420149173548154
0.104,-85.2066401883056,111.82002599227066,-33.749001946924956,100.36451451042119,36.38113311866021,-7.457149058074577,11.43418452670632,-28.388402931067773,-98.41961538099117,-45.64669678983934,-34.995931470064114
0.112,-83.30719550719598,124.07487997743158,-34.496840336499524,95.25778972210887,38.12455356944064,-2.201531918914044,17.32325294510261,-18.061731314663618,-84.69143351959848,-46.69464846532324,-46.457263479096106
0.12,-81.59031491222467,129.87656945506524,-37.118375572499744,76.4661028660573,37.01726793816255,2.3247978004956344,25.07222212847338,-18.878304342825636,-73.97404219022994,-45.67667982892956,-50.5781113362222
0.128,-65.4414555267199,127.56993593763687,-25.21317783585363,72.08106236301484,33.595414234651685,1.9210105805728608,17.445510177079072,-18.345706526184628,-95.40353233683146,-53.52692013345846,-48.71303112148697
0.136,-61.608280969310314,126.78521731990439,-19.747294532068075,90.49123599276854,33.42373904468682,-6.074734955765383,1.9394441630708477,-22.502705514301212,-119.58595010593827,-55.73999330324594,-45.50789831751373
0.144,-84.29959190076747,141.65448310845272,-32.57650279030634,99.57749750258587,35.20822443651921,-15.539589705469503,-3.6801615827679215,-38.10485028358513,-105.50168544946797,-53.326132560109556,-40.06104635134298
0.152,-81.59192354321337,157.94354796289093,-29.560779687757755,94.20526135118735,26.79908632380688,-11.54095055249317,4.206472253523981,-37.49264490056812,-81.5673868867215,-60.28900039268405,-27.737004828184187
0.16,-43.70321590803081,150.405952893232,-9.422081677525727,101.80968623831899,11.272757187041075,-0.6160707066788462,11.40150156587755,-14.869448489090555,-77.27213996752653,-60.548138573065344,-12.32573312987592
0.168,-34.33031736364511,131.68028908977303,-12.586432491012863,118.78667127558725,9.204183759982087,-5.635991133401858,2.17771051669321,-7.238158693741842,-57.30346579323458,-42.01506783071983,-12.080875805688391
0.176,-58.055285787989256,122.21460069326021,-32.30552654660204,114.56192378362785,19.116614404111754,-19.726327475903016,-14.141625683466609,-17.607743257958465,-14.237569341801425,-20.64596465678216,-28.507223080006348
0.184,-57.14115931073353,105.04570250541941,-30.9276523993811,88.86710097142186,17.815870548545146,-20.038849464800013,-18.34525785859396,-10.190996983015095,-0.8364056386040832,7.7348571783737645,-34.34984600327315
0.192,-35.996633201965295,74.32128042508842,-17.48062668774372,67.5668520337409,4.603996334219939,-12.962952452730873,-14.985813816870502,10.759687749103598,-20.725104305166376,58.33419011803871,-23.102479693953452
0.2,-34.80181433090574,57.3600621795757,-15.98568062299922,56.259254549054475,-2.3549866406341913,-9.821401023994627,-9.761892245012435,12.007420105342202,-31.097297966530693,108.23690070024485,-20.909642803613607
0.208,-37.15511248505754,50.72596974479933,-13.844864757065562,43.79412172092674,-2.0287419994372056,-2.331344618434649,3.3340802709954747,-0.7583671566081884,-37.58891863105372,123.96364558778683,-30.521868874339244
0.216,-26.783040034719303,33.77924023224557,-5.281170705154166,37.03366363076804,0.7571462207693044,0.28872608127075444,3.854358667497975,-6.652950552369111,-55.42044808476261,97.82335366532601,-29.852378788018427
0.224,-35.33438598593826,28.857725429033003,-11.22060333691729,46.460041497132366,13.428326811969029,-18.181826595984262,-25.01955301779462,-14.138745008697144,-54.43585803682312,39.45830636949624,-25.22980078955062
0.232,-57.090174669245854,45.52688562105354,-23.28645717533497,52.09613848533435,30.25162157687757,-30.74016424872185,-41.129661047828975,-25.90041687945746,-28.510577856184344,-17.825298240356915,-36.505566630263885
0.24,-46.72889246063268,41.07849512390393,-15.748131692069961,36.480890018272724,32.07804423622385,-13.14584228498232,-16.24966019627903,-25.41358041189762,-12.558764336924384,-34.15098719211585,-50.35857173382601
0.248,-21.748805337378634,6.863361316483764,-8.62061434033805,23.550417449516782,25.02618884268029,1.7524486846479688,4.755431878746086,-20.31427450738561,-13.497188587116216,-20.82780015176245,-46.66249207435524
0.256,-26.98419365482442,-15.32579954070867,-24.657791288576135,28.87785842941072,28.264430476731693,-8.2151784993225,-3.0590835094892936,-27.563493923327133,-23.744189218575087,-23.93794598391139,-33.33643622722933
0.264,-38.869761337458804,-13.20790377172854,-32.789358983795246,31.005604025212136,32.99332822414365,-15.195208586114427,-8.314475520785576,-33.13567670053826,-52.732579126830146,-48.41604589503014,-19.615982440016236
0.272,-28.889737394014887,2.643283367071664,-17.3587129027141,30.33286972648209,24.82158890231116,-11.708406681060492,-7.903966766055339,-25.5809903553135,-78.26684276573896,-61.90912968234323,-4.240483189127595
0.28,-26.93870059395949,35.68042329425533,-12.18075440255475,39.61854450581017,16.342533772602216,-16.47119518337993,-18.144025175600476,-20.15315733544256,-60.060587192817216,-57.44105764692208,1.5839631309796651
0.288,-37.589188769022556,69.28255986384501,-19.15050441409619,29.652526164254585,16.619762412634316,-16.074510384377078,-15.72304943198811,-18.855303566416254,-23.137068405927753,-55.89871614477554,-9.324482247425406
0.296,-22.800675024512184,75.49189536110292,-9.320930848263638,-2.768950964602906,12.731030192115892,2.199391616580972,7.9108232923353246,-9.892519607792211,-21.136535920311847,-60.74318769675186,-17.338245019363836
0.304,2.292558326320501,67.6106139236111,2.3612276912627728,-3.7504191210664897,3.313017128593298,10.61468527186786,15.944939823706115,-2.800797367786436,-40.17425532131992,-55.91460459944977,-9.202514081168076
0.312,-4.545816616173217,68.56240428534034,-5.320695783085751,19.987553198215185,1.2918438996729933,-0.3493028393164346,3.1601593838479674,-6.239328634285845,-38.42627689315113,-42.58722036969721,0.7581242426446607
0.32,-17.71165874066293,64.95631221760654,-7.325326426226427,13.77694742029545,2.9594318944292692,-2.763904745024779,1.0162762610128349,-3.885411511380838,-24.877200388179666,-34.9578558352619,2.4145038463512045
0.328,-0.914486504628648,45.978136658147406,6.604477992402905,3.6290328974213817,-1.9162042217154882,5.506747938024143,6.440123313502517,8.418667973933832,-20.720516519039116,-25.939584133695025,2.029555812212133
0.336,14.52435049307899,29.7484317370188,9.228792609685415,25.839552263152633,-6.3904867169031645,3.22402076953274,0.01811083635417519,10.723531504326894,-14.458403976825753,-4.889942303143036,1.0583958125571304
0.344,3.5224787127943378,25.568222147202825,0.42715387791523624,29.361691112193107,-3.9272240059110914,-1.006110781091236,-1.9953373599739062,1.2726068175434055,0.5674366456763927,11.207730163698308,-4.223961257960078
0.352,-3.8372997103308712,20.95042466670818,3.1920547160787707,-6.41690882914382,-2.4702668399177274,8.911040407878144,13.86695281289881,-0.9893295027058991,13.796644313621636,12.32415257406934,-10.555166730102494
0.36,3.4701201555311707,7.174299728036711,12.3428611963026,-25.091626389302128,-4.742117770990486,16.74083876974987,21.62320004579359,5.9655624097796185,24.04260895235932,17.629147915761173,-12.94769984154771
0.368,4.378765970033492,-13.34644498828338,12.705890088114769,-17.925488156556852,-3.90054812902641,9.485766075977025,8.07984151959957,10.800733174047943,26.921165037977786,30.573066017567633,-11.05757781361639
0.376,3.5563241802404195,-32.736072967400695,7.707453190482584,-21.825312916876076,-1.533135833537242,4.657863423887187,1.5931752878120358,12.703079236453872,13.517854846919278,34.80878148268658,-6.054497969671814
0.384,11.757754455595434,-40.554570361340886,3.306575043784544,-30.812531163428442,-4.103228544531264,11.071644808227564,14.302989464676696,13.837644421690808,3.094999035761562,37.57064371134232,-1.3250751790116113
0.392,14.266325224725957,-34.26758018670147,2.7794534516964813,-26.35817930546851,-7.941050931668595,14.112409879390288,20.095851413890585,12.762737554259983,17.50629971752042,49.384261598840894,-3.0726733096346046
0.4,6.583614594350843,-22.21012066788377,8.445248986727176,-15.55916179856482,-6.365221007799058,9.394968338718527,9.532573528590978,12.289589239814351,35.897545144057524,50.25037030791468,-10.605184458354346
0.408,0.2292431108102448,-11.794330475582585,10.311216261589301,-5.799952953405202,-1.18041582900302,4.866321285988558,0.818352311000146,12.567672541644601,32.54387994128724,30.277075021852017,-13.88316980141717
0.416,-6.112618912280186,-4.973869600316677,0.39416244836731895,-1.3926719279796018,3.350914267404559,-1.3222489559909298,-4.818464303056293,8.139691658436293,19.577783678945682,14.451009686730764,-10.937347623504781
0.424,-12.760270152726003,-0.8715094773207633,-9.214489340880192,0.29894049306923653,6.4060568682037635,-10.89781511024391,-16.96153647928026,1.225297958489998,14.686561107593056,15.585793986488483,-11.775157580395938
0.432,-8.9409022404062,2.3030293026033206,-7.47096371003607,9.158753908120607,6.012629885008029,-13.651972369480912,-22.856269171740845,-1.2036670833231475,15.783413203687447,14.264724692288542,-14.110857079368833
0.44,0.39943680318288854,4.179348586450492,-1.7870252166270195,12.891727746371835,0.7050384992178662,-6.693134463655662,-11.669392078411677,-0.6250992154072267,20.659219371800475,0.6455959818137481,-4.492296192623098
0.448,-3.7697561012540053,7.174095891924375,-2.8101937629514184,4.1330944025223895,-3.078158147154128,-3.707421098758761,-2.893469329794549,-3.0015469983426906,31.21273748316045,-7.875467047382132,8.47927248665611
0.456,-19.1952842480993,15.750498939131319,-9.064844469600692,10.585010092183342,1.1031565240968753,-11.401869877370343,-12.257583352122044,-8.071222128719452,39.251931915449084,-3.78883135526817,4.386013281398312
0.464,-19.881748662708375,19.414480196145774,-9.754060980241333,28.019897405666356,6.449333410572431,-15.457972881355207,-20.841143244918683,-8.371657663539338,33.522037126208716,-4.595695063183263,-7.86998222775093
0.472,-0.3492133039790732,5.352951789814429,-2.3616880802756253,17.27916215362923,3.9003617343874177,-5.625981265824442,-9.568550156978917,-0.7454223352852577,20.229985238286666,-15.327073207309057,-5.762590476193684
0.48,8.946605897050826,-10.371111963998674,1.0115385781806334,-2.861654587263115,-1.1939551819821244,3.076706090234082,4.550280483525783,5.336253313346132,17.753135169763876,-20.950860044474457,7.877474072061388
0.488,-3.8899537527312953,-9.05610967320108,-3.2968014715047507,4.498355812126314,-1.183423241151875,-2.0710788188780382,1.0220566123994412,3.181121557038485,25.372808559262065,-22.36265170256568,18.479017235317368
0.496,-11.715567585208703,-4.560338133771373,-6.691708895038019,7.075350699951408,0.437467273602862,-7.81583230162189,-5.804601302990346,-1.9077762268006695,24.409680442619244,-27.75225919057969,21.87025050297264
