time,C3,C4,Cz,FC1,FC2,FC5,FC6,CP1,CP2,CP5,CP6
-0.2,0.4758194842653904,66.30444881331036,3.972401945753718,-107.93922053617736,-14.224314163485033,6.736539391456259,8.749652296917853,1.96832382710962,-20.447852134930972,-28.56663505083168,20.66345599650928
-0.192,-6.056152518738271,84.99103310123401,11.065445189886159,-93.87874898962137,-13.249421372591064,9.000903404246289,9.713334460484296,9.051006613735423,-16.809751275794735,-33.16769798749099,16.19633557724402
-0.184,-4.347690664783896,88.80436175603732,10.119922490905285,-60.72243137659627,-12.700669911124281,3.101733023846542,1.1099655167187203,6.34175714212155,-1.7649969253214548,-42.33071893309735,17.07515405451536
-0.176,4.122680881139026,67.67847646934216,6.798466990045529,-46.036530359781196,-10.01733168101857,-0.7826606970795645,-3.450467743279774,-0.9564154256975369,0.14297607818879432,-60.28982993131656,21.152053418229876
-0.168,-1.7414392848962554,49.34713842684605,0.49803943610446844,-48.483039411550436,-1.0018855684562593,-6.527612941546276,-11.215500832095488,-9.440054500050742,-0.4466940100351319,-69.889171795162,13.084706091990896
-0.16,-12.39234292383621,41.64657068441337,-4.4660301943743335,-45.39468932921526,4.541047923871377,-12.825087270121914,-20.36183433003683,-12.701826487253228,17.917836393763835,-61.04419059512491,3.6791887187882972
-0.152,-1.1849730241565148,28.79907428711828,2.0293412540118823,-45.40914764660396,-2.553362577321341,-5.501168027607883,-10.969697095860917,-3.0160636783792536,29.241287251632222,-44.40875128933703,9.385392805240212
-0.144,14.804755964978552,26.398346196080837,10.690679894876173,-61.36242999951608,-11.336324723911227,8.673893583917486,8.49031004022696,9.224465572657431,26.774280480617264,-37.87021325368667,16.436866647147383
-0.136,8.05173671674356,47.4742116965668,9.23011240057475,-61.94066947196299,-11.73639701027938,9.332033562494786,10.38877959582105,12.866951403863528,55.526961955843774,-47.276710832407424,14.976686796171574
-0.128,-4.346552792667718,48.8336813077246,7.075132735849872,-23.268239610220718,-10.550634168976838,0.27546107228580285,-1.2547928845612595,14.433495235006898,106.19515572968665,-50.474990395262274,18.887724240517617
-0.12,2.0957080984040757,2.288380964377492,13.285718403172863,14.038009780015715,-11.422471757745017,-1.684032122034264,-5.4280524721807595,17.371017422497438,116.99233779598566,-28.921560753329977,24.468762082656596
-0.112,21.841944376568538,-50.97360141124197,22.929599723678596,18.186174586273488,-10.612720726871535,4.275705747425984,-2.388420327569507,20.193316630598115,93.68538779954677,-0.16154917253653284,15.52771618210042
-0.104,37.10038969492435,-79.35838604202651,28.398313237406207,22.7427613694051,-11.04885456875563,8.598094379524413,-1.2284427073529187,27.89778004521124,84.27022121418776,28.785478051337453,4.470129535114351
-0.096,35.10854130605311,-97.89127702549041,21.39403783684465,38.621435699986705,-15.26943902378297,5.81817029710696,-2.3872712431644634,33.18785189935782,83.0283546954711,79.41327769598222,7.473640119007463
-0.088,23.74973718341397,-108.31827246341525,5.326421050371637,25.84560838060726,-19.45426935900411,-0.9469467414021266,-4.880096345491607,23.67885834879505,64.43408444905663,135.72462586650715,12.803954688714029
-0.08,26.275776627472965,-101.81969082360328,0.04745459740600864,-4.78156237283704,-21.867887960710934,-2.1130719090131778,-5.906373931726302,14.662168451241874,36.25944998272183,153.15152649942112,9.947998370814096
-0.072,36.01879303896598,-94.37917801911173,7.767180410206514,-6.1086792791863225,-19.680447801092303,4.53904240865124,-0.39392455404510585,21.26091001325797,12.388818230000137,132.86855668921362,4.41613720278695
-0.064,22.85809183547847,-87.89362429377651,8.748769200477701,5.665078974955388,-7.944568923067982,8.865669971671956,7.601285351921144,21.91147946614453,-9.905103730069918,96.24303074524045,-1.9096637994171648
-0.056,-5.8166509292949895,-63.96673714512969,0.45991164526958966,5.943122646199322,9.439132870574179,5.185217227794132,8.724741175214175,1.185093534336336,-40.35901939945524,37.221979835519335,-9.025421694986237
-0.048,-16.765600983597285,-40.31722786067115,-5.720197620644044,27.147564344024932,23.933608775312155,-0.9559134397446933,2.9656344532326475,-17.078279376433116,-73.8847833415119,-28.855821022366175,-14.649115904599007
-0.04,-9.062639958506871,-40.36566178611564,-10.829637101703144,67.215640890836,31.90077850447725,-3.7961655400566268,-1.597129350419628,-17.03847018791918,-84.3585157522385,-52.23725446072695,-24.539436330810105
-0.032,-5.416003173861649,-32.02461982012053,-16.927174880875796,74.47373176992426,31.652445104841238,-2.117514224657255,1.2468585058626103,-17.95974492039588,-71.88071995809858,-27.49709550607821,-40.86217186311847
-0.024,-14.726035454116996,12.89881941571605,-22.254173548825005,58.79639382503377,25.997181635544862,0.29999788310898234,9.046528603796807,-32.20392623966292,-76.65632589269308,-3.0802136234928468,-49.554917345104954
-0.016,-32.02241084530536,60.93088156612778,-31.482504396867053,66.30955688387111,23.193755938982076,-3.5393094172547923,11.166977055686603,-44.21173944949494,-105.7073175528815,-3.756440060461264,-41.28916262290086
-0.008,-51.18227135296654,81.15603459011665,-40.63998601752212,85.1570679988121,25.291311385009248,-13.491310056950304,1.8887390445354992,-43.20386400688504,-119.68658867229065,-15.088931945233732,-26.774226523172253
0.0,-67.4432113016794,89.756817415691,-37.51724468203011,95.18324123332356,28.72173915958207,-20.421669566061915,-9.630802282633836,-37.42409133376294,-104.94948341138077,-28.490698775278776,-22.041786443439307
0.008,-74.0025712721828,103.48427170849965,-26.936442073304953,112.69050131334232,31.62463743077229,-17.371084763675874,-9.236607608654962,-30.224167142682862,-78.48163400762343,-40.29935567806884,-31.663987378537733
0.016,-67.74489758884789,113.44317681561562,-22.512287933725343,130.793456994937,30.597255365144097,-8.624644556679964,1.2822596347366437,-18.937295913117698,-47.52510753159274,-32.50496041802041,-45.46470852520335
0.024,-60.261920422185284,105.74073625169112,-27.279627492783312,132.45713751160397,26.70180277988313,-8.685356937161494,0.5307596161667877,-13.782035837494272,-19.84800703967388,0.09887570434891911,-53.03800579527961
0.032,-59.45497025570847,76.0625716097372,-37.097578480184126,143.48148820512944,28.08103525917548,-20.963320137876632,-17.65774306021203,-18.389480885360648,-10.262010545931327,37.258457049249806,-58.273755765959486
0.04,-54.78278273945796,35.31544253224186,-40.793631863561146,172.44773014548397,31.062035747235313,-25.71188806006576,-25.323034935491027,-13.990580884479051,-16.99601630348175,69.3696317645188,-62.19293028369825
0.048,-48.923087680300526,6.470084920934242,-32.48974346218424,176.69702408267347,26.183060747750762,-15.894708988435351,-11.558057910938164,0.16337910859335592,-23.184570678970584,96.91081589194029,-54.88033811621767
0.056,-58.92034321110598,8.774230599592732,-28.810020386766023,148.3505651601738,23.753598610338937,-12.250811819992238,-4.7826423873305925,-0.05179285987072076,-18.631340814951386,97.08687742952546,-47.09365251124788
0.064,-74.5979256448284,41.3508453389776,-37.19629196421102,128.8422681621754,33.76595503561899,-16.80822911656915,-10.001528427279565,-9.67443349250459,-8.945387868022594,57.304218107092815,-59.52820274043881
0.072,-79.24542911200186,74.29701333667339,-38.353050755609466,126.78846229209682,42.37638266808956,-12.718921071984294,-5.160892946624279,-6.9400351722193525,-4.945770454525097,15.672513549478971,-74.69971615507538
0.08,-85.71982074945781,73.6758745467133,-32.175969296382505,119.74678504795953,42.966111253821644,-9.75388956771351,-0.5261638633787152,-7.152286414496762,-7.191345521688598,1.266638637503923,-68.25042894024492
0.088,-96.4787994433896,46.03520434253199,-36.99649013650336,107.50577885696742,47.55318847190085,-16.98052377649044,-6.76909483856174,-24.22691888561246,-15.466732616391967,-10.186750150945713,-57.82256238826928
0.096,-91.36876863958489,25.04626982950015,-44.20203308599745,98.73894535821297,53.9674824653124,-15.756381441356355,-2.010272895579239,-32.19039389410506,-39.43335881363042,-30.23532566918665,-58.2376658409019
0.104,-80.38386593325166,22.945300422996976,-43.94381047526569,93.52143112794653,53.01478690492319,-11.030099388699794,4.145866484252616,-25.63556252449767,-73.90046557508005,-33.20656386704271,-55.32781147207981
0.112,-87.36822436925964,34.298409885606766,-49.39712857911521,96.91256985032531,52.40192801387612,-23.207072315303257,-13.555872322114752,-30.512809552751847,-92.40711758778431,-24.008280348986265,-50.23202189026334
0.12,-94.3889565362478,55.33450066217799,-53.39490790021258,106.10866757663655,53.27876768767176,-30.283313599412846,-22.687718330293688,-37.551000817534295,-85.69037825761737,-34.76735997427552,-49.980164836830305
0.128,-80.54651026695328,74.36676410132873,-40.11925193981656,104.68767643406264,45.16062137643474,-15.35703011887515,-2.6235316306958945,-25.740286579736086,-73.08683338833812,-57.118576467797126,-41.86918311473003
0.136,-73.62856931218153,83.64447621110682,-32.48784932221487,91.50884331642227,37.634517410594725,-10.76609142396215,2.2228766746916153,-19.194881970880164,-74.15942140449393,-58.5070148604671,-31.60327501758513
0.144,-95.21643283656674,95.24324027345013,-47.47705516972736,81.4644710122914,42.897824638961914,-26.00125509237782,-16.05315215957007,-35.58209040604585,-91.71322906734864,-41.3868665231589,-36.14198653460911
0.152,-110.77562482608941,113.7116331035335,-58.515903555568926,81.39341573226932,45.329372525425946,-30.547869420379552,-16.603303304768538,-47.78977123670049,-109.54274022044304,-34.360271079222244,-37.38105135129396
0.16,-92.56704901329314,123.49117144154032,-51.98900279102748,89.10516747537508,34.91803981137203,-23.238037856344373,-5.669192973799652,-42.90821173237314,-107.47078422560614,-46.61216985777146,-21.887382908968235
0.168,-70.496222287356,118.02760920002024,-44.407239456743696,100.75396363652929,28.277241751819734,-21.694440287082227,-7.674896134230979,-36.990102467788354,-92.13633570398426,-57.64030742069261,-14.897867318335162
0.176,-72.85040653881826,108.56180138794805,-40.52932735362202,112.77241009802303,32.56603268570928,-21.04564504683104,-9.706177010015878,-31.026410114010552,-84.35984567441331,-52.29752382720864,-24.70359497122856
0.184,-80.30416168928414,101.44051499849829,-39.86114227025072,117.721189569238,36.064804736428634,-20.91724403723627,-10.920691831523026,-20.925681610429272,-75.76219487846794,-42.08610543454615,-30.120721506558567
0.192,-71.90056956418557,86.97187423816037,-47.57746839202488,97.37841782810682,33.50109016449937,-27.39756882548495,-21.982061000124617,-17.00043242716881,-50.823731894277344,-28.891918188227088,-29.0868754398406
0.2,-59.077761127605754,59.48256103657753,-51.33424076747733,52.45847897920776,28.719816145156816,-26.283854345554257,-22.375376997859902,-17.534288542790208,-33.04168227050506,2.9196908250639853,-33.39120676731658
0.208,-57.713307466677925,38.11171436852966,-41.05155437221333,26.743185889705323,26.630919071306657,-15.263424851085464,-8.92343523135626,-11.674325237467702,-45.22118468560536,31.33275891668517,-38.17239490492995
0.216,-64.09110965599173,40.42071521240468,-34.44212688247038,38.97008431519326,29.524490670207133,-17.230579439151487,-13.68353472880407,-8.017220218195007,-64.32935731392087,16.34298609905088,-33.03695895533716
0.224,-64.13287014597681,52.45818766546846,-38.40533077636959,39.28097289779146,31.96035644547272,-28.636612271756388,-30.66297620123189,-15.25854723331516,-71.50452900009239,-22.9832463118097,-22.654890884352618
0.232,-56.56488048662848,61.9968629102972,-34.92483622995121,4.854763872641171,30.790009338864515,-23.700136969012174,-24.831922047037143,-21.32238687549457,-81.02749076938312,-45.796794370002075,-22.575291317894433
0.24,-54.87893748264308,76.78298115987468,-24.303641336592978,-16.687996499919308,31.39383845497704,-9.781910183564026,-6.7675495405374795,-20.556031270813413,-84.86864680264158,-58.06407520676663,-33.61095548327998
0.248,-57.19999967270129,83.16608912787481,-23.782496311535397,-11.226527557912311,32.06493884944406,-10.632915686421358,-7.968730571147785,-23.57254808900246,-58.90504577022839,-67.38775946048005,-36.699216942134285
0.256,-50.70968931818966,59.51050348147909,-31.166440856849988,-14.52179337545767,28.840724207199468,-19.824614528428704,-20.063955531205327,-31.577096972142705,-33.376317679096566,-57.11986508340562,-29.03865568214381
0.264,-48.89317878697721,27.623406144245518,-33.8722145307703,-19.965971501540263,29.63011363028247,-21.137402780760638,-20.503763145240722,-35.94986789802296,-52.680224058563745,-39.200054177619016,-25.375483972875177
0.272,-62.91439357250148,17.574459714301312,-31.09647775274375,-6.85155393986676,34.00044984189218,-18.940810474711757,-14.365653971911264,-36.315892603543894,-86.43687556939564,-37.33710314067126,-20.2243292321862
0.28,-65.20374556558242,24.381382200493825,-27.817054933491896,-5.013007991737393,30.141816273929305,-20.010092964835515,-15.371354115236276,-36.34940395604539,-85.88123197606842,-40.6798961056728,-9.882229908528881
0.288,-45.87358388891767,41.270728037890684,-26.56677364789644,-24.945403823920625,23.880739583241546,-19.374946999506733,-19.200669051057023,-34.7786809271695,-73.12688686966824,-42.55094727447969,-14.986640727753729
0.296,-37.81144754184693,66.87936833819461,-25.94989239062633,-29.521659213468507,25.031603684415124,-15.22092180435503,-16.194530203189558,-30.686546476886797,-79.43566445038275,-54.49954961710326,-27.686250896517308
0.304,-48.184453132968024,82.67668678382454,-23.74317429348643,-20.151402373194262,23.158589132430343,-12.810105990942962,-9.686677356037201,-27.649901270914434,-79.888601488586,-61.14582644363088,-18.312801840696842
0.312,-51.770594983704015,82.03956452858338,-24.00837535526617,-24.699985341172066,15.362073421417728,-13.580861786628619,-7.529007530188357,-29.34809521032859,-58.970929522513856,-47.475093103317434,-3.89231940918829
0.32,-47.38225810436514,80.97847669756379,-28.02171059287755,-26.651001363027873,14.317749473760266,-14.837308585573957,-9.288474860983664,-33.09924436590967,-40.30999106657411,-37.64176606566379,-10.395247625530088
0.328,-46.24096083318176,80.72362820560289,-25.06173227106742,-12.905969653856793,16.516307609162606,-13.590915793716956,-9.21786166363099,-30.656033393933043,-28.249659873663976,-41.755693318925864,-17.251397713692093
0.336,-43.09079924701942,74.32180665658892,-13.41569508216114,-8.605430895966188,12.341607927143757,-8.077142641501053,-3.889312488354526,-21.568062885228574,-15.819069839899115,-40.841692864813545,-10.960604849782818
0.344,-36.901044432805975,70.35482846802921,-9.550217972365786,-13.029940997199413,9.359621010387,-4.524315525634054,0.23191981161992078,-17.233041288216544,-13.418252500346808,-41.38915933337921,-7.057828708156656
0.352,-31.82860708211029,70.41799559459115,-16.410621230833268,-7.075577617802699,11.582430830716207,-9.066428606393593,-5.955238984865514,-19.35434257812541,-7.814525602972621,-52.870449289211024,-8.855847141449704
0.36,-20.786060555691517,60.07114061150041,-14.747261094922372,-7.662121453385261,10.743932968149142,-8.80972116897407,-9.40988645686404,-12.893561045812413,18.709674990071573,-50.130185922710254,-14.852939936122473
0.368,-4.989191657200498,35.628564712521815,-1.116319119210658,-23.460324184482374,6.359229409043015,6.570270840495119,7.614461080051468,3.2115649628120697,30.924996644052218,-30.05559201334163,-21.301817975209953
0.376,-0.1890895972103283,13.299398748041648,3.7403658074212176,-23.856162705262868,4.522646649513838,15.530685817716913,22.370279306339174,8.370590342118884,8.12163069616325,-24.88658876687984,-12.336150765724248
0.384,-6.6413948581525935,10.96644592012117,-4.031552878721741,-2.095008699796342,6.449963502598461,3.3100580871066856,7.822667063523472,-0.3215846366726875,-5.490039334406896,-32.688384664590046,-1.3095058684353678
0.392,-9.80527628695649,23.514188156922575,-4.632578367661089,11.32525835986485,8.436110471555052,-5.726689900136161,-9.0114280670591,-1.9214622028137167,8.024911359491497,-27.27829718592367,-11.242272896474683
0.4,-7.122910279231031,27.444457797717302,4.688119111078744,4.680014480738327,4.257163791040837,2.2733007138785557,-0.12456621366969198,7.183102034066379,18.605529984849927,-16.01535059804027,-13.506531250515216
0.408,-0.7786483748459411,20.478951614206466,9.565881759803933,-3.9391577933208874,-5.372695303654769,8.06657251917526,10.392989425564382,12.91951674389932,24.013514666635775,-12.593391070806025,6.872665419651005
0.416,13.53328485145981,19.585629741284194,12.036577731221758,3.390001085353012,-11.208428527284436,5.916503708423464,4.09636907373527,14.500286968180122,31.45587445958963,-1.7154437363020103,7.931083001195485
0.424,27.070497302479797,17.579911756815918,17.47388475921043,22.9825071229499,-11.905690390845507,6.554522196830863,-0.8323922267973056,15.412923798136491,22.8519682878863,23.915143106978466,-9.780985421076476
0.432,25.457304566366034,-1.7300639232575008,16.68979927792769,34.20003540379602,-13.046718860172703,7.588057600299184,3.6767747397530886,13.362636071730925,3.872194430021548,42.70835684439052,-3.3025240574453507
0.44,20.167948895493232,-24.86704746113311,12.48216082219082,34.57997322812912,-14.172170120100626,7.231414892616566,8.329585720703081,15.08456005569788,2.1111733771751524,43.72787877633951,14.388434611858406
0.448,25.171673084737233,-35.452178167096484,16.18366865592305,41.79907013010577,-15.190856191481968,9.327636994644665,9.614250867284923,21.860940788278217,16.6643628703685,46.02755995758317,14.67169186542011
0.456,24.418843790803813,-38.683949447968494,16.53172573038809,50.87543157760419,-16.588277924530235,6.262493264387008,4.650878138163662,18.987691226581028,32.53230691351391,58.76318364069004,12.412957207549544
0.464,8.75766019097563,-38.06956674735504,4.541335687221475,45.87390072291617,-12.22066100087993,-3.5621173689796484,-5.4301045102742656,8.931002572666113,44.648350121184556,60.50544513786547,12.152858529487172
0.472,0.549183850762086,-35.45017964746785,-1.3523812434932703,38.079673969717305,-4.937526089698244,-6.006949583079057,-8.55581254415245,9.878837924908254,51.51595640415378,45.18944602684212,4.918406534204425
0.48,12.542422449177415,-43.008743781972036,8.56488355883835,35.361660360660615,-7.577421397922455,2.43764622610332,-0.048771303766411554,19.77978879839302,59.43476224431081,39.64997294814165,4.614331456301425
0.488,31.243996992672827,-60.78022006723578,20.608442055132237,26.042048900117333,-16.19772633011814,12.389590222515524,10.874873165183754,28.050171665114764,71.3540156790574,49.47168811912855,10.621025746747852
0.496,40.96837310660333,-71.50046808624748,24.753174130961437,21.929280414112426,-16.79813522570925,16.20032529439879,13.518483693532705,32.6984886536854,74.56521089850985,50.92545741237505,6.895594366938903
