time,C3,C4,Cz,FC1,FC2,FC5,FC6,CP1,CP2,CP5,CP6
-0.2,-15.655959862297173,65.87130492876867,-7.60874587735007,-16.805331413328737,3.7156708499285704,-11.077107825262999,-19.886511070930563,2.303261858832413,41.0080602743497,-18.348838426236657,-18.10770820860153
-0.192,-3.534495200519412,58.96220278641983,-0.4313189293843835,-10.869716970428033,0.1325548630559343,-6.786627727188798,-16.78278189753593,5.515412845957402,36.53990458454047,-9.074139661148894,-19.92391932641975
-0.184,-6.1974471740805015,55.11284347762014,0.3485913731901863,-1.6950107051049201,-0.417543116386291,-5.5993632745347846,-13.49266998176324,8.239227170605837,29.961124329733092,-7.688731419143803,-13.93294621364007
-0.176,-18.49522245226534,51.290281476676824,-7.793873638561045,-5.706558778911845,4.09725175164857,-7.267320414496724,-11.167743483245754,2.9476389325573717,25.137651398367293,-8.602878247196058,-13.478552660360515
-0.168,-21.715755304437565,38.779693538015295,-11.557568233540863,-15.502602855745378,7.076618823063355,-11.977893530825922,-17.673338761380936,-3.9876148949894206,15.38537115847646,-3.96062844245381,-15.072420516935408
-0.16,-3.9036086219826758,19.193191948360315,-5.624108793680283,-20.897562199655408,2.555297782833746,-9.720280149276826,-17.818828703901293,-0.6190345517616648,0.4903497201610914,0.4304741838856682,-9.068041497855736
-0.152,5.458106122862696,7.603623663210053,0.2784519624405054,-17.402805649780596,-2.555637554092934,-2.3445861035842372,-6.99430623628321,6.651388070741291,1.0324988458750213,3.3725186741689672,-0.23894339123580033
-0.144,-18.109371038140406,12.158861865939748,-4.437353773418027,0.5702276800685477,2.4193618202495455,-6.614890552032297,-8.691247398947617,3.7482992299041897,16.065169657996545,7.932938423413865,-0.8919400431114547
-0.136,-28.006918502971484,15.68943151765156,-13.14809144830903,22.27322391017895,8.469475369008599,-15.884956403951593,-20.321023098520595,-2.2765585291508974,17.358202002795615,7.667096086330046,-6.909594880785565
-0.128,5.816244750393428,2.1328977682402344,-13.091579170220157,23.060548332584045,2.36057371618395,-11.572298917246902,-16.90064401283753,0.3873324972983116,5.058152602679318,5.10267444975244,-5.148979604314176
-0.12,27.85062782656723,-13.183010587076245,-6.508645018893035,4.097716469024758,-4.754586951913583,-1.3235648827745048,-4.567914944508351,6.113205892411163,1.636343027770098,13.076884403612823,-2.5215331268812364
-0.112,8.35813548236776,-11.064246125914972,-3.11870375147576,-8.343880060642537,-0.6700974633831659,1.9458433842432619,0.9171089469476803,6.8786950165728085,1.8420196665172486,23.601573111155925,-8.896039493126198
-0.104,-11.01937199984677,1.4297464310298897,-6.86019518955023,-3.273103023767181,3.1054461897709444,-0.42550174939377705,1.9802232286776031,-0.211364109508171,-7.1839561109958385,20.226857059614325,-7.30745980084554
-0.096,-10.887177633479933,10.727465543937678,-12.69351737456922,8.74867566125947,-2.6649700948714057,-7.669357793789009,-3.5090104397824726,-12.623258059864392,-10.428884586659214,13.363335299141077,10.547315664573796
-0.088,-8.013223330518526,12.989353722128756,-9.273106751785672,14.219116208407456,-8.900116738445762,-11.015810025574998,-8.724096130784753,-16.63264698797424,2.844383719463161,18.923121950503525,19.314698082699696
-0.08,-10.801994195089069,4.391434926389424,-0.4993601076711805,5.763706641787645,-7.180575598016374,-0.3183800690363138,5.279330509391636,-11.330812902831799,11.681017753226852,24.957379893605648,10.290156944349805
-0.072,-17.798121806519266,-15.948550978479858,-3.040311127462169,-11.131935965789916,0.37816193517693136,8.746914632922216,22.329956425251975,-14.614248516768754,-0.7077273025920449,17.420309143282832,4.049713262917286
-0.064,-12.188768678547753,-35.18236014270818,-5.674175811022525,-23.946868861161228,3.9400279429237983,7.692637304620084,20.653080152271865,-19.95350528672343,-17.02274662449194,7.880526521609746,3.7601069013099084
-0.056,13.795888146738811,-36.03811604643622,10.657956289349805,-26.773108452726916,-3.7106229334466723,14.135592044094247,21.000757149537932,-7.7888243697174895,-15.59296913909273,2.8115146517548357,4.713958179159521
-0.048,23.095767528584325,-18.46227037561881,21.397108388714216,-16.32665606405094,-11.656775439904413,19.938988265384936,26.853103996534916,4.84226334668234,-2.41049999016033,-9.930362132040901,15.77513178575864
-0.04,-2.0663593131846545,-3.447965424153262,5.9905469848588355,7.401512298846431,-6.555534736282258,5.737745785054463,13.497347115101865,-1.7815160227891573,7.238780801048749,-17.676289498597857,24.361538650392905
-0.032,-18.16017592555322,-9.311070035543397,-4.679054876032523,31.27908358689945,2.1476839775951087,-5.960546441971787,-1.7822181176105252,-9.81279015350613,6.664326947563562,1.9325843147169655,10.988667454537609
-0.024,-2.0740254567725582,-34.794809143291126,5.695854323226508,42.40983980022604,4.057980429559885,0.2950774333224821,1.118490505177679,-5.944155124596178,-12.628479357419902,15.911049914004364,-2.7204700936125312
-0.016,21.348326921818174,-64.3836923196199,13.046193731124081,38.14744395193131,6.634648808199946,4.13630869657802,1.1176588792063178,2.2742250864435216,-44.62038841810355,-12.324764361146178,1.5364840193482696
-0.008,41.05599745231506,-71.96922835316259,18.472838266446804,13.09887032359012,6.827054479218376,12.252016336247474,8.161333858352378,17.88987439954319,-57.60785983330917,-44.94294839630099,5.612412577875787
0.0,61.84890226455896,-42.547014062383745,40.15216855357522,-32.39482386371058,-8.851348111674394,40.677361978474295,45.40394351158092,39.78550516263184,-51.739845127739734,-52.0612574962879,13.268365334802338
0.008,70.74368905012453,-5.739656792489197,54.2744449031296,-74.14285986359506,-25.842407770555198,54.90735272145169,67.16322779940145,42.23762255364143,-77.19009706221141,-64.90041970417414,39.51836011588674
0.016,46.961239391275306,3.7711408187390023,28.915919670474512,-85.67378372445727,-17.26999334925315,28.217286303469542,36.45318480792747,9.863315587179663,-147.22941545350565,-70.26585012846309,49.6507374309792
0.024,-5.899339601608566,8.252623665245858,-15.533237462428676,-67.09061604834262,7.675844727928072,-7.581973253357797,-3.5002596213701973,-36.11905897497703,-208.92121248970975,-20.867329015577553,17.517738809867453
0.032,-47.44964742013642,33.39336343330795,-36.8774193675229,-36.17548794060689,20.650061118276856,-23.42137707798126,-19.481340925324623,-63.7087356713673,-224.654498024359,40.844169988046296,-18.41667611915363
0.04,-50.25988386058546,44.67843217090912,-31.640238372948836,-7.185495121139283,21.887428632625344,-25.114788293787534,-24.836081720636876,-65.68207313944856,-207.15821739944556,50.74408051333062,-31.870559981437705
0.048,-44.2472272596393,23.32259530526302,-27.624377651083705,11.614143645688191,28.001654092811272,-21.110907697382487,-21.689704871311086,-59.18889773806983,-187.9823137870244,38.03712583035465,-41.880608194130524
0.056,-52.761584666832,22.84503591041501,-36.26503208196978,13.86034019026706,33.86851330688145,-16.410043911615873,-9.893600500801373,-56.248392861466996,-201.89104263227216,36.74608282092872,-46.39750141590648
0.064,-52.812511795610696,78.48716270568572,-45.92901265192673,2.9695399793817345,26.02664157995409,-16.78840545853914,-4.7559817622992435,-55.45614342496806,-252.40650625961632,22.690104942807753,-27.90511822530521
0.072,-47.46357697337221,148.834722223284,-49.00370493947918,-4.52015690002142,13.155153471346855,-18.522053837718275,-4.207214974064709,-56.48891152805259,-283.6373879724803,-1.232421090749139,-5.7498933900380695
0.08,-63.03064365400488,184.81977855026338,-45.15430333488693,0.44954422244513115,9.141975881945257,-14.835601593008262,3.850670902402466,-55.52795884077801,-253.0722212564831,-4.074864789236992,-3.1563981761883677
0.088,-77.94413963492939,186.35138543621778,-37.15680176401694,6.514044749104979,10.001262290772534,-8.251552399272144,13.0698766636968,-45.58280849965369,-197.98439392984346,0.2554544308041608,-8.642027647324374
0.096,-68.72780009236276,181.10475392399977,-36.916045699967164,2.452641843514733,11.862140028088712,-6.1449197895884025,13.010556285215005,-35.59572671040363,-169.75196124753938,-15.1560171235896,-14.109478579408274
0.104,-59.45171676601217,182.16009118027156,-44.10945309205745,-5.669700810558942,18.93393277640022,-8.044963834866136,7.640543657868805,-34.4041962449711,-167.59339118362317,-35.439782330837154,-28.78392650781945
0.112,-61.23632169964733,173.92738845009396,-37.82880411101566,-6.55239749413904,23.85433346991104,-4.882454356977862,8.657099767142153,-30.14206885394785,-175.24241368960284,-35.62862293316285,-38.97278248541972
0.12,-59.509612159548844,147.10876960028233,-22.591939308817643,1.2379581769334027,19.01536520568946,0.5551095093986887,14.34151742239106,-21.926110314796773,-192.52556237686747,-21.38025249328158,-24.560888547188792
0.128,-58.876901725732395,126.45819086136196,-27.08956369490412,13.500125183016282,17.378514899861646,-6.689883259290316,6.732900380887807,-27.213748419171047,-215.43302985939587,-13.72422206863138,-9.222328726950128
0.136,-68.74070753678974,133.28842968970488,-42.580252946181105,30.62107356286554,25.977262818517687,-20.55170997429849,-10.86667898693627,-39.56022518901999,-230.45554990269048,-13.67897448553647,-19.30686665913326
0.144,-86.97812749480465,154.9829317879948,-41.59786149669423,48.412076459315216,30.386542035949073,-22.36653938822771,-13.153374728233965,-40.2595043849646,-230.23826488752812,-6.667058294267327,-29.607330510937793
0.152,-106.67008060207544,171.52265426340892,-35.894434609510576,50.61654728365428,28.524406660571103,-18.8114533138149,-5.530051743341802,-37.21043915061642,-226.4670393405853,2.539749896571789,-24.159450219072856
0.16,-105.30523463296836,172.2874692928901,-39.09455879136869,36.709347934655035,32.11227100512191,-19.13360486496625,-7.410209739895653,-37.0417962416128,-238.18804839742825,1.7462289373090312,-32.72759255173134
0.168,-79.39207001791993,153.9997416886107,-35.09706769111603,27.525316147337676,34.66882034377799,-11.825411672974521,-3.9084262159321312,-28.998249181895655,-254.4891593929169,3.94900930359257,-51.012363163814484
0.176,-74.33977164489963,130.36800853952943,-30.217950664024638,21.255208804326337,30.585244745543406,-2.861789039890107,10.875422073684108,-24.862894870252546,-250.1946000423848,13.744464820241298,-42.63462207383456
0.184,-104.74941051834715,118.04190732775488,-45.938351541759275,4.226538097386095,36.657529933410565,-10.767062908039286,10.501911306632534,-41.15630141994867,-241.71509544388667,6.333661572758065,-29.107062697620822
0.192,-120.50848917736339,114.26153574210741,-60.74170988167921,-1.985857662867813,51.83440347830575,-21.262920723361567,-2.3364295049088493,-52.912296903008304,-252.01691564203304,-16.0242907263579,-42.39833069437498
0.2,-105.77957265016457,115.78357560996716,-50.97989029331498,13.336834299318278,51.38056538998127,-17.33497113848197,-3.112601785252132,-40.7507056854093,-256.74999505793863,-23.965629854493773,-48.10304582406965
0.208,-97.45198594330911,128.7158875495252,-40.579666762842095,12.79268910224291,38.90712003716984,-12.685956910340426,2.5426413622797543,-32.59345429373108,-240.44990159277125,-23.583214515264665,-29.863322262658976
0.216,-99.8846053205413,143.42456759367596,-43.82895424468565,-9.997599967698061,35.73828886918285,-10.31756577248285,9.461978669541098,-42.232183307314656,-224.22600985373498,-31.725311316374697,-27.171428237124854
0.224,-95.43406031397758,143.48848991538114,-40.97344636313746,-15.25333488997213,36.06300471005038,-0.15196663481777334,25.193273109690022,-45.099732747688115,-213.0671785804001,-35.29604892910993,-36.074896536761614
0.232,-93.57437677871091,137.6239144618112,-34.522845775589666,-3.458878461839114,31.13202604533522,1.5717819605279832,27.49912858398872,-37.790775871768254,-208.13619788697835,-33.90238989446613,-23.01316686509554
0.24,-93.34942743551845,144.27348002863278,-39.19839467336153,-1.138808675450351,29.09135311767383,-13.710091348619573,3.1951223743034554,-37.707873025668576,-217.1700220543345,-37.34226891770916,-11.164658767960098
0.248,-78.48654966877507,161.1894575522627,-38.232446354558846,2.836480300135597,25.895421589344757,-17.542072784250834,-8.170009603345237,-37.50407701947038,-210.22556396789832,-27.50388367753876,-23.75757508263471
0.256,-65.10443333272605,173.16821454264843,-23.545438921036546,19.07290433524449,16.314121438798388,-3.2361556446302138,9.001547555537627,-26.4752243755302,-171.7241431520469,-7.970713701515084,-31.41550839852716
0.264,-68.72112365741852,169.7622734911991,-22.286436302209385,30.428979055813542,14.958453224448355,-3.1896868834472425,9.706797058857497,-18.391401413954963,-140.8009661790576,-11.132266490193304,-25.13101235405801
0.272,-68.76043263378664,149.45450818611562,-39.85197829015124,32.97995357846319,22.68301895772552,-22.61062281562606,-19.391427102876296,-20.266369382463633,-110.40215675227905,-19.991319913525214,-28.552953508477184
0.28,-57.399291180921466,119.76783092367388,-45.424192136882354,31.499391076296277,21.404191068417877,-29.20439585784589,-31.887280241357878,-16.66652566655378,-41.32815615394631,-5.100528372047316,-34.9290906807363
0.288,-45.129009309381765,92.6278681689494,-29.86779117796913,20.331353847754194,12.134200422343687,-15.008580522561994,-13.988754783890483,-0.8042465263826373,13.246332282842912,2.663236321594298,-25.689620005228946
0.296,-27.79990212955624,78.865546444841,-18.40152878627547,7.610555004846546,7.561203997845247,-7.979854885926134,-8.064221083509572,10.280686309250207,-4.781881179834185,-13.188765935631986,-13.47559795714428
0.304,-16.487598685900366,79.63581595293921,-23.284687049776206,7.385292418153825,7.833147501540612,-18.537233409969886,-26.511745432534216,3.1359081987674453,-35.776075601918464,-12.80976052835519,-14.75369842781323
0.312,-28.53076713504486,75.44368720437569,-25.71973781376996,12.677647712754393,9.88018716108755,-22.91335333875561,-31.482645070469346,-7.5255273800828135,-26.528032459978636,11.97763476354514,-23.756503900423326
0.32,-34.21243880583171,49.22676706760691,-11.781174927089014,15.540846575102146,10.854756284266212,-9.735390186187535,-13.085873749431158,-2.8408710422237395,-12.822635137951789,27.943616524841005,-29.26065227123039
0.328,-13.401886081170295,19.900016591335117,1.7523157076461673,18.399629345918108,7.50065441158476,1.6423406854126843,-1.5088838479216915,7.684428127200466,-6.035369815532085,29.58072243165856,-29.9630847233774
0.336,-4.011326936853884,8.292230960838461,-1.8239060486598027,15.921538820629541,5.991451686698461,2.068022794213282,-0.5542284006162648,8.259575935001378,18.554890965430367,28.468995556006895,-30.03119649988993
0.344,-14.194819422431602,-4.982782720018026,-9.165816889416378,4.694401347517819,9.839302921564963,3.4126037970475656,6.776587694097574,3.8085293429411418,37.20238861232132,20.989414066717536,-27.668915330250687
0.352,-9.550200181956326,-34.47952027996797,-7.990249943343638,-3.5125830675684817,11.120125900107553,3.8091454413589476,8.373701254854664,-1.9379518890117782,26.514980506691625,10.713407383082632,-19.14161864798018
0.36,-3.2290889147206134,-54.00502967698561,-10.85761786496186,1.1650405002971311,10.414796513144564,-6.644536672182273,-7.298587982184534,-13.559885870310303,14.014492872723855,12.56749147539046,-11.70661311316385
0.368,-19.12522380492169,-46.57765886955932,-20.257467025250673,15.256524397437538,13.475823720369357,-16.45051671624498,-17.6353966957457,-21.447139638940588,6.768184151419035,22.96807323484019,-10.783961884786038
0.376,-26.022262915317448,-28.204954916232747,-20.329886396141276,24.864660083691238,12.967654190013166,-14.299496173522597,-12.45178200233768,-17.255814027579234,-14.628785351127618,22.597105922611814,-6.848499341631645
0.384,-9.730982032914833,-11.173499564125503,-13.952913192072373,15.826583268678714,5.277560136383165,-11.774748487488242,-11.922311839628978,-13.744422952888607,-29.02678946100425,9.848380758740799,2.3089073641195843
0.392,1.2901781785757682,0.6188121254841036,-11.892746542595937,-4.8691151642246115,-0.41697178476184654,-12.959054756614183,-16.62821636176296,-15.526211550286227,-12.032321808878924,3.3540471802266856,4.015601516546641
0.4,7.719489707517293,-1.418723140650746,-4.197485626299887,-14.141983700963982,-2.7463570650088456,-5.322571553012478,-8.473288771826697,-10.563186927692808,7.471015404610716,7.232834229354666,-2.2867879430175395
0.408,19.34740495508207,-11.50041915461989,7.684597718465395,-6.331182909785549,-4.269556165097508,3.550489929034007,0.839469094409559,-5.075699520548642,0.32941761387414903,4.3879586828885655,-4.543916451643584
0.416,15.674587823435068,-11.322593490185996,3.9433894839871333,4.769899376999382,-1.2114206670356387,-3.167667488557176,-7.478232824562537,-12.537338157021432,-17.827182552668855,-7.303587221712317,-0.3393076491699804
0.424,3.0288012636965083,-2.0940009132108157,-2.3735642297729167,9.391301066847129,-0.3165535659679974,-8.300410795872835,-10.926998168398633,-14.918355526903559,-21.17115649804871,-10.175424711435596,7.5885062746272025
0.432,13.594436716428813,2.5547180766825095,12.770519699767535,8.554558680293859,-10.767936819688908,6.6333333272379,8.306094788049199,5.968870175155399,-7.192586968140483,-4.444563993981965,18.53135689695449
0.44,34.96048288221761,3.633035936787858,26.10349621587955,7.709571419605971,-19.85967773459399,16.77803099909138,17.258741790340196,25.408813166398815,6.590483562293997,-6.156143859040934,24.56230447941701
0.448,35.917058929497145,3.8150649514447794,14.848267187318818,3.279722771832529,-16.25396975325537,5.475817568180021,0.7010400254312387,18.044975940795194,10.192446857270005,-10.080612590778856,19.92392316311277
0.456,23.51951015329829,-4.294613686546489,4.183464698369535,-14.708161331898339,-11.089558196903898,-0.8228892887869871,-4.429814672190816,1.5113825400360041,12.557884933247864,-3.5295474359763537,14.06473391810076
0.464,17.301568376004088,-16.26808221265487,8.32693202697086,-35.55829501152661,-10.47711646412334,6.6318792230155434,8.10649402799099,-1.376726061054583,10.437756874866244,0.3236522321207322,14.311307172943582
0.472,20.006858930649578,-20.76074678470643,10.313039345291653,-43.692617617942965,-8.78650098604706,7.178375645541413,6.92874313604657,3.2268201627957134,-6.321447346886282,-7.857984995886917,15.681816782588268
0.48,26.94517020324818,-25.674268248821537,12.455966322316218,-52.41496563495903,-10.1543678427226,6.446059202067556,3.5813665397246957,4.093452062738561,-15.311695799826206,-8.853828197119693,17.56502281401596
0.488,32.35193395683227,-37.90552631150872,23.149941461503122,-64.10049625114094,-16.690899252289608,15.566782725721247,16.564605227836076,2.1374442396081395,-2.962799258560096,0.5278656431061477,22.914184053403815
0.496,35.11907325186457,-44.089884191045364,26.451506893553113,-55.8436260251352,-17.027206154810337,13.313432461795411,11.931850606860001,-1.2449241080099056,-3.0184947203690857,-1.6637866513629647,24.348761258896868
