time,C3,C4,Cz,FC1,FC2,FC5,FC6,CP1,CP2,CP5,CP6
-0.2,77.05962601118054,-150.872474384347,19.61396511178358,-140.2886972985522,-66.5703045678181,1.536707873351175,-14.199061040751797,37.21030871476042,113.87122055369596,253.904849688386,48.48388584998929
-0.192,59.94421198460376,-128.71802627859483,20.511193683055996,-117.32915108396021,-59.91495553802357,2.8975626087287525,-8.129612403869894,30.909137067199698,77.2865510975677,228.6652052806588,49.93526706972801
-0.184,37.491049035851695,-98.32979423708028,17.3704036896573,-91.28208817641456,-32.39820283222181,1.2378141983402629,-6.248920869836707,13.22691484735279,29.53588669024901,99.04925151945568,42.89868981490747
-0.176,35.91692774639766,-61.0442780107728,14.036225468578996,-77.7137933138174,-8.163662402962753,-1.0885074864325535,-10.64862352120548,-5.687384986643891,-8.368878858333451,-27.39166117032609,24.014425640411766
-0.168,31.1002920331855,-43.38861635332577,6.974987197617838,-73.01348590394754,3.7965368281859604,-2.7604767944208435,-11.964251497872983,-19.781931245295883,-23.676722042493388,-61.25793798831251,4.966013528233965
-0.16,15.332090276475956,-19.756711666264398,1.785251099998088,-71.21294063186575,10.229932854649729,-0.23405213728306437,-4.2704580529543845,-30.17961564172045,-31.1513820034332,-65.86280485670767,-9.09696462209976
-0.152,18.603107650794723,16.132765719814223,7.096541358387239,-63.832365828281795,7.73613055925799,5.872507726506865,4.796568145849677,-31.803064910678312,-53.4594569121441,-86.89471955664037,-8.390222984210824
-0.144,26.897820568600373,33.394748032250256,10.19653467136772,-39.60623385168729,-2.432623023246537,5.475855665524574,5.940460154830391,-27.448670613843134,-88.74598797418527,-83.3090749002341,13.407397556785865
-0.136,8.423753626258174,45.827183786362106,-1.2333042460410006,-9.309557701318857,-5.81460779116865,-4.169825041823745,0.29032638742406586,-30.24954343031211,-104.61215314426589,-63.56093342351297,32.394417269696945
-0.128,-10.240853719094346,77.41160807094006,-10.892382981379846,3.438584678477674,-1.2620245097549085,-8.439094783170118,-1.0001728704528545,-33.471746965019754,-85.18336304337626,-79.36713436077719,29.198203488712323
-0.12,-4.8119435856709885,101.28466140943574,-3.6030186617308413,10.820348060184266,-0.37177515231304226,-0.9749436927110955,5.96913030409577,-19.198623336492638,-54.720908755072664,-109.5093024398741,22.035303760770983
-0.112,-2.3539858741674213,99.76904618590012,6.785374797449931,39.69308363078622,-3.0792559600599136,3.3386964076824053,7.907578378703334,1.2672767311275994,-24.422641969913972,-99.52708995881574,20.961358242532818
-0.104,-8.411705274082365,89.67398416381522,5.852286799518994,66.952479119474,-2.901505523864748,-1.2770996935143206,-0.5977877284263693,6.109616146629877,20.267070042914163,-60.027304488440386,7.5955692779384165
-0.096,2.6309696897936363,67.66290382204764,0.9080829460749806,57.40282401006564,-3.793307765390073,-1.5782751916432505,-4.2011347549868665,5.222644558603738,57.074044863286794,-15.064091118167557,-14.618414915784287
-0.088,20.812913837119755,21.976245561578992,0.9809362305997693,33.757430990980744,-11.934084579975528,4.40299683768836,1.4529405103239637,15.681836577035456,46.224284437729196,61.36214791501177,-20.542636486774303
-0.08,21.327945637424957,-27.499141512510256,4.230426440931744,31.109604186067077,-20.46115838924823,5.501576984399087,1.9754435705939446,28.29137918635561,11.942616499289215,156.2451357164062,-14.426915314172954
-0.072,9.745769847215916,-52.8546051611013,5.946499168450101,39.6433285417889,-17.018055599848523,2.7629775162420405,-2.8492592906190324,32.284330066787035,4.443766505509087,188.18887781043676,-18.128589825670886
-0.064,-4.63343572562759,-44.85769304614704,2.154115772463401,41.47997022677994,-3.2184997067392516,3.327091266927918,-0.7547433172082652,30.974139403392495,17.679362069008,142.34514226273973,-29.932063221515097
-0.056,-20.562244246670442,-15.670363173389681,-5.701787213485129,38.67811801029266,8.942034668867471,4.157017493982497,5.178900339942489,22.34327411389929,25.77976333172488,80.81852191996207,-36.87762818869922
-0.048,-30.08048941882394,4.144129054035255,-8.812516440380348,34.1863793677066,17.38688691674407,2.685322904387906,6.400438617730505,6.612028954658405,33.45629319910673,19.915855527529562,-37.56492065237906
-0.04,-33.115117099963065,0.34759310165162344,-4.508012205928491,32.48062409801393,26.49121640813218,3.427362254229812,7.296640678345341,-0.48085538182976867,41.728422363644796,-43.26760013003164,-35.53305359888118
-0.032,-35.71832558985758,-6.488879639754321,-1.7240505225568614,39.15626981010125,31.682064600225843,5.471864867894728,10.389711096360253,4.220348699318618,33.74197081025588,-72.55532516479128,-30.822718488163474
-0.024,-37.259949717138866,-2.8579885017179207,-8.096728691459594,45.71357035944335,29.99985384573833,1.3430156545371026,7.999675713114286,1.9604044661049582,9.496272414186306,-72.53970787894157,-19.17739477000554
-0.016,-46.759097306562495,5.935848531245686,-21.386072231743075,46.36719200087593,30.58219372782173,-8.784353301738909,0.2528157187001769,-10.564634730498954,-12.525315049046617,-86.86701459665615,-2.97319307066438
-0.008,-65.72589765218363,27.043078633973828,-30.81513406744132,53.47962883784259,36.2274115627843,-14.275318170260569,-2.501509830165313,-15.949722212935743,-20.421407805180305,-103.68290287122814,-0.7332002020511859
0.0,-65.6134327350599,61.73477589195488,-27.669817173789177,69.2288778609649,36.259761370228084,-9.856423967425021,1.5149055623357792,-11.497846077955359,-15.239307320722602,-99.81038273712912,-17.07261515863568
0.008,-43.602328621432875,85.85314892753841,-19.462758323702833,74.90158845333843,28.343128354608798,-4.11685366668189,4.918552956701189,-9.942138676756466,-6.01376111105142,-101.67221762513859,-23.873139373328637
0.016,-36.57475196719674,92.04763210429974,-18.122274896572648,65.80377143871588,22.12009319150697,-4.081062489947212,5.957955571218817,-12.102617075455258,-2.723621592724403,-115.29376264363255,-9.629733877759573
0.024,-43.336981180664175,96.10379997132202,-17.961873402805935,63.01640917378426,19.798177633971914,-5.771470345001167,5.044615920316146,-9.89707307979115,-3.845199419875552,-114.81956362418904,0.6838000956634819
0.032,-35.659474920078324,90.721461321856,-11.077402697699599,77.8218610062714,17.534471189250777,-7.270884666945849,-1.5351510168310498,-4.381773974991608,6.823395027124481,-109.95088352462864,-0.06896775999852917
0.04,-27.67201516056799,58.754050206810554,-6.2180800491591945,91.32103557250859,17.04103011309326,-10.045158115608588,-8.518565679963213,-0.4871754438038626,38.749202743694504,-110.50797254948091,3.8736813114324393
0.048,-32.38984129539026,18.91494493261876,-9.200925903875216,86.71738323650305,17.355491795799153,-10.2409824231814,-6.8234999766226805,2.8195150023380933,75.53357509820201,-86.03217815121388,6.0716927147170585
0.056,-26.1229697533089,1.3021706899398202,-13.287384386759708,81.00385572762065,13.042492786692543,-9.581297271522441,-6.720812190658621,6.6000713088702465,94.01380646623436,-35.82883810714873,-3.514095059136196
0.064,-12.826679743584268,-1.0007980941995829,-15.877948583306893,94.50315231248928,6.894060164372846,-15.343974976317927,-18.68464464683595,9.667781892501285,91.15512778462461,7.875173857583236,-10.125343655612376
0.072,-14.362132881054887,-14.51793237028663,-15.774530676122026,107.384482929295,2.844931190303416,-19.77268319035287,-26.344799668986873,14.772596122671334,80.63813244912919,55.462604180486316,-9.454479091202286
0.08,-11.876274313852702,-37.42148999173607,-8.125770657545333,90.5203221678017,-2.9679605518575456,-12.871593852118997,-19.30925380288711,22.89470907185157,78.99093189469897,110.76918584258122,-14.889846067192604
0.088,2.1849662765679554,-42.97307020774123,-0.03371013074341657,58.63568827483293,-6.462651075192752,-6.384103199512113,-15.161226790040239,25.950844869884847,89.39549707741034,111.26351802698561,-20.61385130294908
0.096,-3.4209545557751473,-23.868467717176053,-1.8932690032607715,41.13758103622653,2.268687312078351,-9.564596619231803,-19.728369530913866,20.686242534444066,95.75993786757742,38.91940419957026,-17.316633762493836
0.104,-22.38756104507962,0.14230295135229934,-5.80971192361061,33.09626095170946,15.687861281141162,-10.969181859875093,-19.42318614344846,16.816740119792108,96.52560691230599,-27.544221627328927,-20.292382816141497
0.112,-23.816720552161527,15.846527952236741,-4.314875616505506,25.111337045427888,21.0288755868231,-7.841759200275987,-17.343540614492362,16.960426416636594,112.16024003357258,-47.23177940750803,-35.66616363909617
0.12,-22.10318748467103,21.473105993814247,-6.099064303775391,29.067212849262994,22.757203713755338,-9.796504894848297,-20.54613388567842,11.112861003308225,131.07895166767435,-57.57021133964539,-42.250210447557116
0.128,-31.160780583666085,8.905842945526029,-13.211066453107048,39.25098475648879,25.65661132507937,-12.148941137578595,-16.739505722941676,-1.0741811552223033,117.8106821520511,-69.20890420985741,-30.86194284074734
0.136,-30.938552079802008,-19.234975743018406,-18.591645579178742,37.14562150301659,25.401805607439822,-9.579902534893485,-6.259835113043907,-10.196716355973821,82.77839487625982,-64.74784540956907,-16.808603788476592
0.144,-28.32604140877851,-35.265864513275766,-23.916589692638638,36.160578299804456,26.42811740096993,-11.98990122184735,-7.32756806389589,-14.918430217667476,61.69990635309121,-64.3414747498731,-10.669384533670828
0.152,-41.21448431291978,-22.18868587098859,-27.670498114834295,49.11689457837964,32.89951675923728,-17.17586099378787,-13.290185370280785,-16.441050345892123,56.21888601910595,-86.09099909370299,-10.848323079643512
0.16,-42.930139425877414,5.3880694604602635,-20.81935904081282,54.47161193421732,33.536355986112916,-11.870406830652962,-7.437053488715915,-12.68708871705,57.593476252308456,-105.53428869974343,-16.017001653767874
0.168,-20.947994267526933,31.80841518829836,-11.23276503654697,48.67370734293392,25.64029515715805,-5.6776139345260415,-4.785823337759333,-9.92481776837124,68.59964797215136,-108.30929902645431,-24.693068590052295
0.176,-14.293812087755905,53.90193843206814,-15.31290989046779,53.61475206718611,23.937737731408735,-13.617687710581697,-18.691807220699264,-15.930118711941331,78.65544864956624,-111.1089545226226,-31.047298511532226
0.184,-32.48016133741313,63.123630152782184,-28.028413848183664,60.175006466517125,29.99874928919819,-24.758221503861446,-30.515154527908912,-23.213502225445286,77.00255414141529,-115.89610242707653,-30.316152295279203
0.192,-36.28115180914782,52.99320090368356,-33.07735946757463,50.915858126564295,29.760950356504654,-26.857412332885286,-31.80048877709166,-20.591144609666806,75.3336578224787,-104.56522936472365,-25.54841292130114
0.2,-17.935103767809338,37.125778019655975,-26.275932229587486,42.49283230497794,20.699807816297042,-24.621593507645713,-33.56638742553116,-11.248009794365638,82.92996836843338,-75.75238851517908,-22.55264003833199
0.208,-9.167130471377945,31.61354790060271,-14.634967614655224,43.82528316908734,12.130480793275368,-20.311758250024308,-31.20137925970638,-5.895768914195689,91.45118752899818,-49.19709510005619,-20.1499855854621
0.216,-15.526260456226309,32.86141109568545,-8.144123277849483,39.21197123034732,9.536287493567444,-15.035819214673417,-22.586896330715035,-7.276983595986854,91.79494529685317,-40.1149925807522,-17.639071905401305
0.224,-15.893133146109609,29.588829658608745,-9.88735357553424,32.29944345949729,12.275617824851786,-16.895045944305526,-25.989790565294076,-9.48076355702445,84.78795884326703,-43.28533542621445,-21.06350523573094
0.232,-12.828710679633808,19.504202738708745,-12.985444887675097,37.83589623999048,15.939818556991183,-24.752016602325302,-40.30083813537072,-9.63707904497314,80.5353495015389,-42.265462280166865,-25.845683211938475
0.24,-20.023471806653593,4.325739807773653,-14.15754959240917,43.492843427886214,17.38088941762146,-27.672316743771734,-43.112556575990155,-9.705137046247625,83.75670509122841,-34.87142535441869,-21.44595237609406
0.248,-21.278714064982235,-12.238369770605843,-14.668394944693695,30.61562663822743,18.996485137685625,-22.216641976693143,-33.31383807356682,-6.574979632690014,80.18879995997482,-35.97428022556585,-18.85407854758665
0.256,-5.162915278459017,-17.27066978567811,-11.561418828717695,9.625294696525874,20.90119578740701,-13.923693526579084,-25.221120084926987,1.7351922409715286,61.31892417208142,-50.10558070555109,-26.344873747842986
0.264,0.11570588983348305,-1.8423104400461217,-8.372666446644711,2.6470876409570496,18.76316467485761,-11.264866928506637,-22.439993845449898,4.9037780224364695,45.19624569582244,-66.73054522240187,-21.21850957239777
0.272,-15.106926148329537,20.8379190230738,-12.062987424859319,8.746538424157446,14.367263646364671,-16.31774880093976,-23.256927539553296,-1.9252361079370026,45.881256366807804,-80.44643802524944,0.39688610796279955
0.28,-17.898675262419218,32.242841605175265,-12.638605731351008,11.780565973966395,12.188073135461513,-18.451921252658988,-24.994899000744503,-4.967152122519244,55.744019636196924,-87.72113611357831,5.943806336868431
0.288,-3.052804622578546,31.267245944028108,-2.977597149561941,7.288511341015505,10.057812883935389,-12.637003383264688,-23.345305347829868,1.9299889604392195,66.99702672663669,-80.44752671744979,-6.838777996711519
0.296,1.201182068358251,25.427246253384702,0.23200249893972888,-1.650529599193397,8.086104454447206,-8.709881361104749,-19.358435667512424,3.81851407175031,71.30938169306232,-64.79905429710205,-12.211238550721442
0.304,-5.817491655761882,20.48160729045318,-9.399653065605051,-12.211756862851006,11.365577964102535,-10.253114176020107,-16.863741393027958,-6.702433824544223,59.638563049521586,-59.632591966396056,-14.394876914626943
0.312,-11.475387359917507,21.033437095367766,-14.82943404781703,-17.47100237109305,16.06236861121534,-12.054076855200863,-17.118305649420762,-16.221229770077322,50.02231258537761,-67.32592147557017,-18.9654889600871
0.32,-18.9612233160623,21.618580251034412,-10.951184297090135,-22.339531412822698,14.060336134413694,-12.602488443721489,-17.341917772104797,-14.044934201141418,63.66109184811329,-73.54841386854125,-8.885514652143545
0.328,-19.646399160169906,10.408817792714984,-6.009030509230267,-39.38695307704956,9.334221052470223,-8.90719693783139,-11.952812667511072,-5.917670959954859,78.69411160215232,-70.83630630814947,3.5709657083085746
0.336,-6.051056928948043,-9.920212433788603,-1.5889655796847135,-56.088062799383366,9.985874183835474,-2.360548309356473,-6.45836275659149,-2.126775760253029,74.98292389485316,-62.23200023321659,-6.608183249864192
0.344,-0.4122630286643944,-26.863897586998647,-1.2615689286245095,-58.18912915386063,13.987198024975708,-3.8060580585942225,-11.94677532332324,-4.179914800911012,72.80723034780007,-53.748284166831425,-19.12373585641402
0.352,-7.584150757596958,-36.56554766758655,-5.3159489770091435,-60.302502865796065,14.563456862114835,-8.479557378154965,-16.769007735329097,-3.4003987422985533,73.77381690907221,-50.28503704552759,-11.014627831836798
0.36,-1.9472716375733627,-39.79381279650734,-0.0787519568920754,-66.22152999290626,8.906900964417716,-1.4166298929661196,-5.901438156894196,5.652552658926757,57.30645670626613,-48.108762309375166,1.992770231699362
0.368,9.141899853031832,-36.010261515997726,11.700297661082196,-61.70052408732928,1.4213887312777602,6.842231978244936,3.6044586220140964,12.315282741255057,42.51332657021017,-40.25436762693971,8.063935262892839
0.376,1.8139674704520223,-28.477808109413342,8.95957854371469,-52.28259514139878,0.7713161151884443,1.1242909027548849,-3.2707260644023166,6.920543503483631,46.20840854710908,-32.68650298949999,9.69630056144301
0.384,-2.4377381052185982,-22.966805837147657,-1.0398335321529826,-42.797707500163845,5.151276582766119,-4.608701567584136,-9.294024448732477,1.304921944597301,37.635370046167765,-31.897220484348683,3.723027195508531
0.392,13.820454143698704,-23.668511248751894,3.6213983900866378,-26.768796694024797,3.1893841827749307,1.1093261803102379,-3.631477309892238,5.440162300860098,13.298855142313467,-26.212626334437566,-1.5049140939743233
0.4,19.13917044606816,-29.115803511921808,11.746168396751967,-15.843518729800532,-2.7853321655541508,5.723257761940352,2.4388038361849844,8.307433290326287,4.720364282561129,-10.746716437811852,5.136378681474922
0.408,5.790230656886586,-29.30848450587214,7.478566689053803,-7.568489284014488,-1.922937291544359,3.8471365555214163,4.208032427255366,6.670358275154965,-2.222109913463212,-2.8043432935118617,11.722922414708828
0.416,6.579856932785425,-19.912543759659087,3.6036104991033744,19.83696664235079,-0.13160645949077637,3.0227718931774135,4.490370124338637,10.048412644333602,-28.532073248888025,-2.971332025699624,11.224112894241715
0.424,17.985853256466683,-11.31496263054987,5.453888155145829,36.44310022761099,-6.886978996122982,2.859004049123054,3.4070103297860976,10.496869738553356,-41.834935414809785,11.782464170823461,14.86882130507238
0.432,13.867084992475986,-7.8082562902010935,2.093738456060871,7.075258718104011,-14.29428917108104,2.003075254188246,5.095883944891211,0.4290154392695615,-29.340928630719006,39.49282319901996,19.37400642533035
0.44,7.118818788643306,-1.3842878883502954,0.6273445702559518,-16.12692398150364,-15.066900611895328,5.926440724187926,12.162323458542346,-1.5447616936382886,-26.69392491706973,54.95019082135762,13.750337252266263
0.448,14.13584484870818,5.721617052078395,9.65977991658333,10.65373416372853,-14.855173370968949,12.451381440730096,17.771163488765023,10.950083514056512,-42.71609689612906,56.810147029161556,7.150941912770698
0.456,18.119453970432815,6.134160233241301,13.409061716244977,36.668814164214474,-16.795642657609825,11.57561709505511,15.43770133220089,14.98297756903525,-57.05083863769724,61.878991501946324,11.1937199751397
0.464,8.51786371518463,8.61408359487476,4.294320499569181,32.99388858562981,-17.996533553583024,3.0138166405897238,7.566554374991669,3.299492700065056,-65.38517513199005,72.10140701103859,19.335129713105133
0.472,-0.6649956097039352,20.559644370493558,-1.175848448597593,40.18630013649803,-18.317157926543437,-1.23309557393706,5.0793963784243585,-7.0383752167976406,-66.79810757380898,79.90845606429674,19.624596098923337
0.48,3.8379018969069203,29.485193747361198,3.655523074384399,56.11447899186219,-19.974361196140627,6.0740041769581685,15.57509624433604,-7.631177680975573,-58.50717983629508,84.47741310005452,11.466683692569262
0.488,14.243776277817698,27.981862278066462,6.828579768263893,42.049903678860005,-22.447600640501694,14.6167056632989,26.739495296632178,-4.106204460162876,-54.34061589641496,87.1472869196025,6.487958421710607
0.496,5.982589376029024,30.461669068764515,1.8603137608905576,20.602335982294793,-20.006672402087673,10.458364840840025,21.962932966902166,-5.44588488430108,-68.24636385100942,79.34076990740077,11.467786767796902
