time,C3,C4,Cz,FC1,FC2,FC5,FC6,CP1,CP2,CP5,CP6
-0.2,73.25788098342288,-0.6524298310808504,40.39856006500677,-83.62151753150324,-39.069690516282826,29.24247585794308,28.901846069812475,24.145286457498713,-22.33653131991455,-4.583546790917001,42.731057353942866
-0.192,69.63946281307093,-11.090408327926731,44.33401732195354,-64.46748673131282,-30.890086919122567,24.234677934401883,15.655979234576366,22.170724951734982,-16.651743786822294,10.931011975389708,18.823543174143794
-0.184,62.27512193377435,-27.393067106369845,46.328719536537264,-37.56057584680554,-22.505247076055152,20.55336561582146,7.5697058735938985,19.43443222094272,-4.093936163935072,23.313767412831236,0.21836342681633944
-0.176,41.10990188837568,-9.936959937889968,27.001667862066885,-39.76816029074837,-16.819199166981225,14.149821528545386,7.756274277906361,5.076645814391429,0.5141418670743104,18.90575621984989,-1.3582310993805222
-0.168,35.414912567154786,26.48325213345391,7.757670168605486,-47.47007921722516,-18.52000350133413,8.313207294288363,7.98493071090263,-5.710762375755407,-19.57230607403467,3.9792069358786404,8.97767595007762
-0.16,43.054294575309484,43.09559726933121,5.628003889919736,-31.658075940284917,-22.42741357689512,6.572696526886709,6.760682847852509,-5.7504216685046625,-59.3569343034825,-0.18420792919663037,18.913026263508268
-0.152,36.38762794093745,42.10953136579776,8.917242692357163,-18.94574395867859,-24.5100062487396,7.384490800525421,10.028983367570335,-5.34914089510149,-81.18408023615726,9.282630695216522,28.428629730585772
-0.144,14.869343966721065,51.395649983852365,7.955837742765554,-19.984082638460738,-22.94199523725029,6.78076410201755,13.186188646236237,-7.607135522612494,-66.86327015583484,10.528638416660456,32.29210293894349
-0.136,3.0734132380845587,76.11921743429947,6.620930032251076,-4.163243433415499,-16.59947363299781,1.9273076175744952,4.196653637147908,-7.015027695251504,-38.3028075481278,-1.9312230157384234,17.108972061966238
-0.128,9.113170769080343,88.11489520202215,6.825791265050985,21.42000646641195,-11.735363583306384,-3.852202637733629,-10.248787120299024,-4.240047261827231,-12.196475884261837,-6.308151298474123,-3.82789639479308
-0.12,7.0964325095572836,67.79655095851209,3.775689281141858,26.217399771362857,-9.478751740951301,-5.020280344218468,-10.937066030647431,-2.878454997506294,11.401626428364363,-0.6336275887507421,-5.277447553206686
-0.112,-11.06484834087167,33.357021313586,-3.961282229364477,24.486356248326512,-3.291069724229214,-4.298412017401083,-2.8194880371374103,-0.8581789620038508,24.505303852748025,-0.16851627880799672,4.020054971988195
-0.104,-7.358441669968891,5.318828312315471,-6.5298568439506655,28.456877855168234,0.04422691235560956,-4.463770674590584,-3.547603510992868,6.654773290441901,23.275436769115323,5.1194007450414905,3.8714796229935926
-0.096,17.99802782424119,-12.577389156856071,1.7408535150880946,14.310612876280326,-4.986480746972646,0.5029224736235199,-4.025395314094933,18.02646441590459,20.238637676908922,19.262034491850002,-1.1060595209081583
-0.088,10.916806134448743,-7.5923334971259155,7.201824028192528,-7.002844168740284,-3.6563958067850155,8.14347572043471,6.212380418519466,23.79674221373788,23.116660649053298,17.31848169885129,-5.365793584862872
-0.08,-20.118663630005017,19.625855687512196,1.225473747621664,-1.2807105449821774,5.4085082078686435,6.065477143629203,7.911348051477451,20.971081095602624,33.00224910848183,4.0763562238149245,-12.882194490663272
-0.072,-23.317534508523444,31.08959049237925,-5.792117786014034,9.919436473816624,5.668022135927095,-2.375426790620532,-3.7468179944303106,16.129635376739056,52.279475379732936,8.049778704589462,-16.502252872017397
-0.064,-20.571613996267626,10.448716465955675,-12.167778093466655,1.1370329412100313,5.411258105602002,-5.298405287175775,-5.783265911572356,8.115590851749884,68.97768916374596,16.381796737829838,-15.71302700466183
-0.056,-43.70249706181045,-16.270728663037684,-23.211706901682906,6.731089726202634,20.07744795636361,-8.168601483287215,-3.0578388528428055,-6.313001801039495,65.03216455791853,8.875465389414376,-24.74766822271944
-0.048,-55.940482908343995,-40.53382984792506,-29.860637239095073,39.299391380625664,33.072539232358864,-18.887600057515417,-17.255752738483626,-16.46697731322858,44.78466761845392,3.2652706945035725,-32.63888441498218
-0.04,-44.39249452963613,-66.52567664029723,-30.336907681743828,53.0151926478699,30.645325553120568,-27.803389625454404,-31.653574727890295,-18.116354638180937,24.005799891045974,5.3579053892955555,-18.45391484435617
-0.032,-40.251311707294924,-75.06594569667533,-32.2454630810225,37.062276325340285,27.126039297438705,-23.975400182976827,-22.249091321734014,-20.404534701171407,9.060280560392394,-3.38497482229097,-3.563405843110093
-0.024,-38.426054974421895,-66.00647714694819,-24.269579406830804,28.772546978626156,28.820489489955353,-10.924412383772415,-3.7544594816538983,-17.90547378550128,0.6048116730434842,-19.644863303979363,-10.433530284258133
-0.016,-31.01395162925277,-65.77734980541528,-7.1816355039060245,31.314935754635446,28.878788265655903,-1.6489727898552027,3.157052101839411,-6.655865784333523,-7.757812818381057,-31.207104258029002,-14.943203911767375
-0.008,-38.45172340893231,-63.470111280007956,-10.647618400317073,21.292573496804906,30.055726854851194,-4.678893199840948,1.2901848446520234,-9.218274060080848,-25.309457981166307,-42.22483128681542,-5.27491754076783
0.0,-49.596778778849576,-32.0619996814615,-29.50769798116456,12.486791359475792,32.222805466405724,-12.474915141249266,-1.5330690403080787,-30.031725226644777,-47.17358892396106,-54.376455158017144,-3.296477912511115
0.008,-44.83074823784243,8.378248332041352,-28.398440066828215,28.489357795578865,27.759571693105677,-13.90420905242229,-3.3964250020560613,-38.631138275191006,-63.212650739367085,-65.62370185122354,-3.087242040132055
0.016,-41.641788505432785,30.67299859645575,-14.453805255095185,46.67589447097251,20.47858612003311,-12.240976181926841,-4.420649076666697,-28.518036499956395,-72.5939838522037,-77.63920986991326,11.572078388532013
0.024,-43.39505236156261,46.11016876264945,-13.117261998332971,38.407277819971064,17.449731006987857,-13.732824234730863,-7.060694426025555,-24.117874582243484,-74.1794986563707,-87.20748643143722,20.403050858836973
0.032,-35.92979840112527,64.31135395815744,-18.200829989256405,21.92419122234198,16.39013952259962,-16.646241781885415,-12.372978893530568,-30.479152156152455,-67.95040524300428,-96.40094690192682,14.383175127087918
0.04,-29.095797540082373,76.42798638513801,-20.88522278391135,16.355272761250664,15.459630460676157,-17.823061351316937,-14.586813565236337,-32.22326100735068,-64.32356544785873,-110.42571922951032,13.953905075554637
0.048,-24.33104899391045,85.16005369999554,-19.56942509606877,4.646239927747584,12.681719658381502,-12.0604182128787,-6.542206163708217,-22.802115570941293,-70.8057571125934,-114.16924944157573,17.507158043986333
0.056,-12.589437714933297,97.5382453207081,-9.528888318933987,-17.074142969624905,4.730390625410572,-0.5912299684062546,6.251014617732666,-12.437304872064944,-84.20037465440127,-95.74894389235226,15.109227069953462
0.064,-13.528096678055643,110.02353487180417,-7.759580055285977,-32.081582231504484,-0.5544944084924942,-0.3584347056358175,6.768925546401579,-19.544732209064776,-100.55279229694135,-76.5224178468227,16.088600626287786
0.072,-33.729115553362085,128.07579976009308,-26.195146377103473,-45.53934355278477,4.999021166245129,-14.418254711730553,-6.921875259320008,-41.983344843607604,-117.41658885466221,-78.65129596444493,15.283207378279071
0.08,-44.052961865277524,164.57600273233112,-32.646021664555136,-57.778646321336446,11.359839741940105,-19.8137595112923,-15.10557538432011,-49.83597434150543,-133.9716782181227,-96.76747188379987,2.5944775132509617
0.088,-39.287286382185805,213.26928725872818,-12.997066499720882,-50.62232869544672,7.448302717613516,-10.340182770978537,-9.314216429762508,-35.36835145458358,-150.18061725104153,-113.56340771775035,-3.8898286899716763
0.096,-40.34795586893898,256.9185596376541,-3.0288422146721667,-46.5231085366072,-0.6796712717669258,-4.928502262384419,-2.56499255996431,-30.24958278535446,-162.00476689153427,-117.99775339136197,3.1455678868014734
0.104,-50.07063424614657,292.0395959708094,-13.937158319439364,-79.16989831623732,-3.3227561560079613,-8.348626171186739,-1.9562096033251473,-48.128145116838596,-177.46809923883833,-119.08151291925462,5.118461685149046
0.112,-56.24965447704894,321.023021686642,-18.379977896818072,-112.6298269851778,-2.1806475562327967,-9.330089666417514,-1.1223946449065059,-62.2335792069191,-220.19864639116653,-134.6379972215802,5.355235281434221
0.12,-48.74582181215763,340.88190797512556,-9.963902241295184,-108.13525239066267,-6.106009317785269,-4.45111682966231,4.796389964334789,-55.766167370401924,-280.809995096475,-154.5065566185752,20.041916364962866
0.128,-36.45950294989977,358.3424323422653,-4.965444953032251,-105.66416629433955,-15.881072795735912,2.005595258434302,14.837013871168264,-48.224332052750796,-311.20048431024475,-156.0889273478173,36.41624439495304
0.136,-44.48764065866312,387.5526554540339,-11.160546973011222,-136.60772005772324,-20.78127353722023,5.052934696380384,24.119935789840206,-57.797973013089354,-303.8165369996678,-148.1272750719751,36.70766650843364
0.144,-62.77448842098899,422.39446318983164,-22.298945328409957,-160.37320906777103,-18.80063902906501,2.1532587805886405,25.132969971251438,-71.4427933528606,-303.6857726281693,-146.64153763779197,29.628694956510092
0.152,-57.33189427357317,445.11034168425766,-24.727378284286175,-152.74690692059028,-21.030774714947228,-4.450430072212411,13.098738415767208,-72.10073746030646,-322.4239544608933,-142.65863697373118,27.500423599142774
0.16,-45.57757724024702,457.4604424405266,-17.502224819264796,-142.9088812218107,-26.40709527038375,-12.927664891075983,-7.1806685322463935,-67.38175030896227,-330.98515090079064,-131.31987590092103,27.08690018194528
0.168,-57.14331308274573,465.7250791900774,-15.749948081163037,-144.0377313326166,-24.934022095874866,-20.879408605135513,-21.35341507656795,-66.51573027396552,-331.341871242573,-124.41553444943226,26.14164737702514
0.176,-60.52351236138535,461.22465033631005,-19.935554015888368,-143.91998572482413,-23.019704346936642,-22.745422622808576,-22.956786700930948,-61.98779198319791,-342.15688492356105,-123.16871078538026,29.253237028337622
0.184,-37.58883874755457,450.82366629420727,-18.412563285873077,-142.2788228480792,-28.164675099605198,-21.765444888429766,-25.374732859850365,-54.32507800395226,-345.60163095527514,-118.46027240676707,31.43152606423932
0.192,-31.252724002702873,458.4755703268079,-15.487302256979959,-139.93581269238,-30.992199498232416,-26.035792609751198,-36.00953247067159,-53.96216301463959,-327.62870762411205,-110.13419200853042,25.4659748381094
0.2,-46.38168663721267,475.94803636424433,-16.977580949507942,-134.45161957735948,-29.81143736418349,-30.615863327091542,-41.71342675667068,-55.285824236838465,-315.38155528594854,-105.5328709453732,23.50115097231173
0.208,-41.3611722524644,476.4715703055038,-16.83136666075389,-130.24628884145068,-34.507734189959656,-32.205717344581586,-43.79811229275909,-50.82332841237048,-316.97529319691006,-105.17225140753825,34.81379861290937
0.216,-26.68353173207498,469.98184523806884,-16.006660108276407,-118.49479137067391,-40.264178067005155,-40.55277000065807,-59.8465759136813,-49.037202136434864,-298.74973103418085,-99.53972023953342,40.72759357493728
0.224,-31.14278371668051,474.77232157374544,-17.15851265693155,-95.21971744426159,-38.95643202401561,-50.086322093128125,-76.68377344865272,-48.2341581032565,-259.1022426522083,-89.46311288098777,31.74127091978466
0.232,-31.85608276436668,473.41040899916686,-13.935954736223692,-92.86017745238033,-38.30569506025242,-43.39572034237463,-67.53386768025499,-37.85841898548116,-238.03890353591586,-90.65709886038303,27.895585277571946
0.24,-20.957222009671437,455.07234163356316,-9.254085548843278,-117.35963210147823,-40.45909921046416,-29.97787848412194,-47.629550270703504,-30.042640456564992,-237.55834787345972,-98.01231705763844,31.982648276458672
0.248,-24.391863632853067,438.97296481262015,-9.295785385921356,-117.61980619650625,-37.357972471789076,-28.26792109570086,-44.668469273515,-33.93229374545765,-224.45850174842107,-88.2273113922359,23.83562244587335
0.256,-24.51143123179364,428.67023651620303,-4.447248237682609,-81.24933519067216,-34.50943811333706,-28.485254177434168,-48.261209119557094,-28.629378126470183,-204.74617703044152,-68.92167090248371,9.74067421399869
0.264,-3.9174928261364843,412.0722584812018,6.063568917454559,-51.913858389308274,-39.00961552496949,-20.92686639199866,-41.76600888355399,-12.0879762108948,-205.7096236220093,-62.517637502039925,11.906258280222493
0.272,-4.885153156100441,393.0337759322256,5.536881961408229,-39.13612570691765,-40.57235181333186,-18.48679030089409,-34.11699591989626,-12.693990380585769,-211.87358846252832,-57.887281205030305,23.435941356457263
0.28,-29.55023202015652,371.4516867917183,-1.9668879362257021,-27.622095392171566,-35.370962224634354,-23.359990136889728,-33.85760251013954,-25.5940133438125,-194.91361076943758,-40.23478016318069,24.933592887899326
0.288,-21.749700239415137,340.1543626174178,1.499961443547406,-27.430649222494516,-34.58079914947837,-22.395475300221808,-35.89719398355993,-22.913972463336073,-167.47758541450136,-24.10958708456046,16.638920722060277
0.296,4.9719268284221325,314.63243836145153,7.074895313164454,-35.81137177690878,-36.833672966103315,-15.258005916317666,-31.483379848448088,-14.864960562457725,-153.73115234507569,-18.62792289358881,7.127446232549738
0.304,-1.6600818891205364,303.9746149148065,0.6100082596958948,-34.37833910863174,-32.05540984927465,-8.098814511100676,-15.503171170372235,-18.867630453395794,-147.49540011862467,-15.1360744711209,-0.4520432729134864
0.312,-14.425865122754557,282.6674477111314,-5.256044171879774,-34.79296168846228,-25.720586614934405,-2.892373783268877,-2.2373759037565955,-20.131386251599043,-132.5249863216776,-13.562486573304003,-3.755544623443031
0.32,3.1133983417748676,241.17569218403327,-1.2439453744929474,-44.20485333667343,-25.770036693033425,-4.998580746942544,-10.717311454182044,-13.222609026541042,-112.44952064849797,-18.2869713694065,-0.7070834452421527
0.328,16.319003225050476,205.05512645524988,1.8243748674068352,-39.95972005424218,-25.767547216527436,-10.696326815905095,-23.014913564834178,-10.400684802255434,-98.05553289641973,-25.17508569349411,6.164544434054647
0.336,6.430184571340397,183.83141958735231,2.9183221429687998,-26.746064283388147,-21.53564903673947,-5.413404638943783,-11.587605710888287,-7.227679401623968,-86.00218608997564,-30.32494916169299,9.640265924144309
0.344,4.840725410788788,165.2143976567803,9.314804370836042,-28.412778992654943,-19.004009175814222,5.588629015770119,4.906047113249804,-1.713843516987291,-70.42823669529515,-32.95806960524152,5.574929980456468
0.352,12.042374481420104,147.75929958842252,12.307631997899543,-27.796743071916083,-18.061960594080873,3.1468285815029904,-1.9460659641086206,-5.799419865934329,-54.264297329598165,-30.609683731389204,-0.5335628515554888
0.36,2.5343529380826526,129.16574704485248,4.6590350153640285,-9.29535652116487,-13.136782480257002,-7.6765899142792335,-15.987188244105083,-11.95165678398244,-34.798315517442354,-22.197333985980578,-2.3466971523182463
0.368,-7.551808676579171,94.41729585705467,0.39714508976024715,-4.771332658284754,-8.008453892054664,-6.618039946990717,-11.27414861881616,-5.369160795771281,-11.986439846576957,-13.724811131225994,-0.6573946464967773
0.376,8.802737160700866,44.69521299135649,9.340149468439312,-22.0555437592991,-9.009490251728954,6.337723769384971,5.431274896325571,5.609204536766176,-3.3253837425316877,-12.95373449777085,3.235862332740647
0.384,28.329860074544275,1.9778708337868476,17.664484055316183,-21.87452698083508,-11.29949229813805,14.17575487093139,14.629077037980544,10.219239371228308,-5.839410507149794,-13.773011476001944,9.459927519891671
0.392,20.522011704480295,-25.922002148511865,12.226642719387955,-3.82412679435068,-8.600949473767304,9.475223722637438,11.372849385350936,9.196139488132326,11.77347472679555,-4.654642633976049,15.152810215376393
0.4,5.758749257958016,-52.03881140557933,2.052846607161881,-2.278480890103645,-3.4140495779421833,2.836832641746002,6.465712467675119,3.0428616079860373,44.11241273052631,4.226118347394367,15.617765201825152
0.408,8.065251808788823,-82.69354728014332,1.770507710262756,-7.265548854264665,2.0611122944355733,6.494953783520346,12.479619050045349,-2.5571351957194737,56.23609389329728,-1.4755557356973579,8.607657080236581
0.416,11.258272391416506,-112.18389194480496,9.50051321794347,3.5467551102306096,7.44230173142687,15.591285956741054,24.680183081607815,0.972137018224776,55.20000572335342,-8.759241949577712,2.5952427235143083
0.424,6.865310264950782,-137.03825310962733,12.077230294566386,12.99769964166136,9.264861133061574,16.020298445344647,25.463626611960237,8.878866822256652,63.78689016773694,-4.968628192208569,8.48880323536232
0.432,8.092426059656834,-154.98587223329463,4.6513456597981575,14.142103468789355,10.678199684451616,8.344072942490962,14.662773219521199,11.32591470556052,68.48195258785523,-0.7394544333368883,13.33516800374612
0.44,8.683289636659106,-166.13691342708594,-2.6934124152625034,22.54976587990682,18.01838179344611,5.844024791336739,11.272457527295625,8.419362907412344,61.2249026983315,0.5368284549303655,0.5072988665345702
0.448,3.067721787225962,-179.9815855141093,-1.6863505796730058,29.428004669827864,23.899713901972298,9.737906089265207,17.354155526360213,6.203887767097226,61.98116612007444,7.573013247783882,-11.566879433657654
0.456,6.227631146891325,-199.78717305412005,-1.3803009621719258,26.371678430823366,22.355315838798152,9.404943086324062,16.722645345624496,7.58945126171281,76.10440951311136,16.67905661552682,-8.162408717311914
0.464,10.907753914050186,-216.22621904586376,-9.733581837880966,31.603423441374673,24.452140078083918,6.271010920644697,13.47716350947748,8.643249745782457,89.33610609827348,19.76007858423786,-9.946550324945347
0.472,0.66958920293579,-230.90122894146492,-13.266321028816012,47.90972984317413,32.32549058541809,9.991498456908625,22.679046068389308,6.855056309111946,93.298166550315,17.02655784266375,-17.63696017015816
0.48,-4.852524678742873,-252.59892416953704,-2.3181794873423445,59.2974486421051,32.4626229710549,16.13025082410755,32.41758501766427,8.31820145294264,93.06626909292854,13.321684962112423,-8.682635763072597
0.488,6.915109575111443,-274.33786662922546,6.475090829255844,61.44686585943056,26.54694010934761,15.708019279457377,28.31978436324062,12.217157563330089,104.19281159083411,18.494125672547852,1.8333375533091765
0.496,9.507610343181701,-287.7992712014007,-0.05358343891314647,55.10396916417955,28.599558606645502,11.443436708941405,21.59126843763364,6.591589892463298,127.35763613533211,32.666812766579426,-9.090678216850618
