time,C3,C4,Cz,FC1,FC2,FC5,FC6,CP1,CP2,CP5,CP6
-0.2,1.9286091332821607,43.91838459073027,-2.0182014518428746,25.171297197961128,-1.8622720404621558,-1.3186254155267838,-0.017386373214260845,-4.911023709026515,-37.35256863895214,-18.075829259775002,2.8500574322721066
-0.192,-0.995158168799384,38.666719607245724,-4.550776402817499,28.34806037124041,1.0529969706867606,-4.067173933070489,-4.071236071291021,-5.4098102681930955,-38.98425812501427,-15.838039370078615,-0.29270509721254334
-0.184,3.9407207340837522,29.483630335969323,-1.8527795448031987,38.932176994187365,-1.6418366474570816,-2.1380796767649892,-1.9970523610968365,1.2004658058931033,-25.855272115592758,-8.273008778280564,2.6021974046165024
-0.176,12.342554347827855,24.11913208562108,4.088342490216355,37.93107857242446,-5.1710711499297375,2.4732488594828723,1.8024282413908788,8.931228210765344,-19.433937904589364,2.60634488475965,1.1645159274672754
-0.168,10.49459154625309,28.833579755847047,5.385355277289901,34.74450844379861,-4.552577257466429,1.9492218658818192,0.024675399423673777,10.143393783032636,-35.56642452394518,3.773585142920721,0.7335647997712793
-0.16,1.8383381303105026,36.79912114336156,3.3527774450540666,34.6974007586777,-4.355723387124657,-3.8078110733005315,-6.763835028626879,3.859118480270648,-41.465819894441736,-0.302561885278014,6.5671871818484595
-0.152,3.10088577146813,35.328532431670205,5.024367049971031,21.30247744120328,-6.7334280568169085,-3.6839989011487426,-6.706246136475646,-2.2114037431247735,-28.29830429222246,-0.07931579516665038,7.60026275517543
-0.144,5.512305813656425,26.121286850430696,7.289596207603761,2.7129483514891457,-7.150451228639223,3.6469316359602972,5.023289559513641,-4.961705594565081,-23.73987463755575,-2.4926679018755102,6.408786630898016
-0.136,-0.3965527780247505,19.426090338348565,5.965003286746947,-4.039733414521246,-5.891138814186673,7.211561697103392,14.331392499951491,-6.893883300552333,-27.670885100944886,-16.706063173625992,15.398238584969798
-0.128,-3.5168338612099177,20.78040768772127,2.406926898621267,-15.074421257897338,-3.190352600034774,3.305693019542784,9.666689893524772,-9.859142246711667,-30.70702314783176,-39.662038704409404,21.38281146532177
-0.12,-12.66723125344124,37.18364430639529,-4.638596476153822,-36.438893582338,5.691467888232676,-2.5727077153287867,0.616110979055723,-16.166327718705723,-42.75758456556629,-67.0174186881855,12.227970757875084
-0.112,-35.10173765743306,64.65150958098461,-9.602905622850525,-44.44929090318932,15.319362630453732,-5.411689206137337,-0.7382389554841873,-22.302395480961962,-51.11726541204553,-98.25530405484533,6.430997791056358
-0.104,-36.63079153692187,75.9145837061483,-1.8837294645416127,-45.52673187305467,14.808029938573519,-2.613284528325922,1.8953654708781478,-20.60621974444486,-35.2745377020721,-123.62704680808514,10.365137160359993
-0.096,-10.786281111919978,60.814150855009906,7.583528804994109,-62.996396773883774,9.985193788727793,2.549719967974186,2.0356758828586945,-15.078885996455565,-16.68345852375498,-126.56266482595827,5.508036201607254
-0.088,-1.7055778122312533,40.330798482883964,1.1134802098253422,-77.31294264412968,11.293356210501344,3.3585813338457564,2.5027131186903055,-12.515264397072643,-16.419568093214757,-108.79649313239402,-2.7711643048681216
-0.08,-12.626772798665147,20.9338258805748,-11.846044041732162,-70.81734021192095,13.169924599705421,0.2283943870971571,4.578464432088197,-8.920365492248953,-18.235238200849132,-89.35362496915677,5.3930941271479895
-0.072,-11.88437707805375,4.359486557426772,-16.383007819684803,-66.98899447706906,8.617014732977522,-2.589339586537689,2.8871933343504446,-4.325403153567095,-9.189316825252362,-68.38252656216397,16.739635891190055
-0.064,-5.914606912038429,11.210136325204443,-13.671914645821257,-65.62364699453488,0.8236532924200841,-2.182115789340566,0.9247856816032692,-0.8314533946279629,14.930245644485987,-32.68138709009867,11.28266524538704
-0.056,-3.8000283303602145,23.29459825444559,-2.895256953710315,-37.69693371693455,-6.040477050489085,5.100376988498484,8.726095950186998,8.770155254955451,60.9008846514735,-4.167009872394485,2.069038064806124
-0.048,6.49754578862765,-6.32141529585811,10.986454396564083,5.960370832948581,-6.51434236696816,11.814906977577378,15.366751094720136,17.012854665136054,100.04769540036543,-8.799641506212788,1.3864890906782712
-0.04,10.597012196540385,-60.85340998409843,10.333906527715062,36.49585405699335,3.0131012070255236,3.1000137004527373,0.7623496491701421,7.1258542971125625,92.94375245525771,-5.664870552815446,-5.41905948978886
-0.032,1.6042737753099245,-102.30958821799683,1.4293663485127266,56.76716172657685,12.921550240561638,-10.854863995978556,-20.94525862887205,-3.0639682743499046,64.71309515633584,45.538882966962426,-24.208546857360606
-0.024,11.46019188624001,-142.7382763585521,5.617879428089441,69.88260103437806,11.961886347752946,-7.3260218318572,-20.583458946623413,11.201678999024193,59.96407730277452,103.63435966356062,-36.68278545996925
-0.016,32.243536373322506,-163.71967760577536,10.868181868575343,64.59470917218653,0.40832714837831685,3.936099099442039,-6.215534464376481,28.581512310502664,61.04086996802027,149.88758374034035,-32.83078167474214
-0.008,23.96939732046548,-117.18059306439103,-0.8432345798910532,45.03627226679592,-18.55010384133688,2.1701595465823376,-1.6076749331621292,24.532993977984532,38.37471382434186,229.26703161372362,-22.155214913740398
0.0,10.495986481711114,-49.04665824934747,-11.258719235930306,24.388408628611895,-37.41209055508552,-2.2791974261236514,-1.4980592881836179,16.69799672993097,5.836003300790321,300.0297249185329,-11.750428714766887
0.008,26.50580438386107,-32.608053833636006,-6.285872409204207,14.376590191475348,-40.980720872016626,3.557789811604364,5.70299682845815,18.89664323248563,-24.865913610389327,265.05806043347525,-1.5301723718749969
0.016,34.42227025268704,-36.71743269011023,-1.5317872819306735,28.928478011202472,-25.68735430289119,7.399478126040679,10.206610977659405,15.491554719364204,-56.18664214137853,163.8496484421172,0.7041922315974414
0.024,9.305278139327545,-18.239288405992664,-2.980396480117039,60.567461402141085,-3.4618535653311278,2.1210898122081274,4.203291169921187,0.45164311322768674,-75.10260217148732,92.39266838107974,-15.216885875314999
0.032,-10.161562625730006,0.6905126634270184,-2.864066972059999,86.48169291287144,16.93002398633597,-2.4012313411620543,-3.097201110297732,-15.273420672047308,-85.45789786740417,34.21538467843302,-38.91126358424653
0.04,-9.965949189059744,23.415612735334957,-7.172948309510422,111.43510202313333,29.415242530985264,-4.547695461130874,-4.819529209511447,-27.27376498917019,-112.33374486476914,-32.68342250732307,-46.86258655384175
0.048,-13.096694019522518,72.92088059916257,-19.92391405794944,144.31510218196257,26.871351951885135,-9.48056461245611,-4.700856010414436,-34.31675074004123,-139.38710052399585,-51.521265028790225,-37.15796216517339
0.056,-17.123928536901662,119.44613680301582,-27.195577039681403,162.72022101448823,15.433029320363387,-11.497229837780129,-2.566042330609312,-33.653441669544094,-135.344137330996,-24.268550906559653,-28.85543918672326
0.064,-17.545538090580965,142.30190242792835,-23.594094737601058,164.94210629014574,10.657367451296661,-5.146157464443745,7.801996778807727,-30.392844606766243,-124.52218525485476,-26.000101388217303,-26.98759930497037
0.072,-30.063789365211775,163.2347859101935,-21.020171210666067,185.52872583504467,14.559772831068788,0.9823202906438678,21.11909650683761,-29.547825122205918,-132.1607951844088,-60.14048852682044,-21.375870625532766
0.08,-44.905990580421445,178.60156713540138,-22.602776690221575,219.51398346019715,17.005569961952364,-0.3381410818188742,23.45781050539999,-25.25211904984774,-128.84637852033217,-75.6977740437446,-13.069589022972716
0.088,-39.93314451240564,175.92237239502455,-19.354031704839166,227.81810680057512,14.816029548467343,-0.9147405887379243,19.606186418377142,-13.753379465919638,-99.96572088494568,-76.08464339837501,-11.542096020043495
0.096,-26.279548881256012,167.6430311444103,-10.629684728234249,216.99765659094797,11.632443395598086,7.817967340608314,27.32022922843666,-2.319868774675304,-74.37542291612505,-71.4741998289077,-18.508342597642237
0.104,-17.906438974285212,141.99456212383342,-5.696802380745465,219.0983394027995,7.212165400093535,17.42731069045974,39.74335617247708,3.9943617852220346,-65.36008026407426,-19.12106105328836,-30.117280657384853
0.112,-12.223566110038423,87.09595169403642,-11.182847771592915,232.0761247997815,2.0724986184060556,13.389644644136634,33.02216003423475,7.53380229951281,-68.52977115002251,83.4180627322362,-40.2331652847063
0.12,-20.197382140101123,45.88544497664269,-24.942406862756254,243.4243406480035,2.312045649949676,-2.1026446606734885,11.417672094021206,6.838381372198749,-84.88215199930836,164.48337895300247,-44.37858353525009
0.128,-42.495157428948545,44.45959613847185,-35.519303936115435,252.17401219593916,7.726079073485102,-11.92177157259511,1.238123358384339,-0.6831812891143375,-100.91826618605967,192.0316466805688,-48.449410841326355
0.136,-48.101135975765715,55.714419358206406,-33.96183794602496,251.98505297490254,10.526118566470448,-9.282740882356324,5.4101551245836355,-7.016056263490869,-100.95040902670195,188.59928093106805,-58.03477790851697
0.144,-35.405053015493955,72.51115056042177,-28.861313379262395,245.79249948912036,12.891165092957218,-5.746482034169474,5.966560010617275,-6.257607104958721,-92.54623255576887,150.5098100038869,-66.82108309480114
0.152,-40.78792347499785,97.00187048180072,-32.83767159962088,248.12887160243662,24.321169151368206,-9.483748368494453,0.16781212216363833,-9.056242028848995,-84.68022636055844,81.12789802971655,-72.06599050646307
0.16,-63.98961811567755,100.36923914734423,-41.606518143516816,251.00725071258418,40.86763066509653,-14.658948226525062,-2.378485219154428,-22.415963626047805,-84.96308516030558,27.531608345618725,-77.53582325098975
0.168,-73.47567705398741,83.65327421886691,-46.241295419130736,238.85948681684866,49.236123309526405,-15.975992903160392,-0.5167133485393319,-34.70990830953569,-107.37334428457167,4.940403238105112,-75.71174583788527
0.176,-70.22334089261649,82.02172875576514,-47.84856593012722,221.4814820214766,46.88815563509331,-14.170623467840503,5.146435275143067,-37.244046048971136,-136.9466410028834,-12.668836600866452,-59.44341680691618
0.184,-74.38241039239057,94.56839600889498,-48.79706290367286,209.47045946743867,42.57218900278185,-11.70008651867132,12.80614281359891,-35.98101482035744,-142.84214129212012,-28.039726986517223,-42.028389241809904
0.192,-84.3890527266352,110.28509530218875,-50.77926727940302,198.9054963356845,42.60933290091218,-14.700121960711641,9.623410339484874,-35.97567391168211,-136.29504914126662,-37.17438887279509,-37.33245815631297
0.2,-87.00328813136835,139.69469695017503,-56.01466654515928,194.4160699113914,43.88615501880268,-23.946289210064133,-5.941934650471568,-35.88711478337788,-140.92703356691194,-50.40110894440219,-39.56486952866995
0.208,-78.36858652416403,165.21454750201556,-57.293306597094606,200.79613683082098,40.54971037940826,-27.984693522513865,-14.330760010100622,-34.45701709295597,-144.61552386534962,-54.956192469029084,-41.06177255973477
0.216,-66.53695754838544,163.30182992622645,-47.33393497919513,206.95800232168463,34.55384754482992,-23.18075124630491,-11.591824187675385,-31.656555750983376,-137.38657589080978,-35.010163003286515,-45.93773575194002
0.224,-61.423465122951164,161.16405622815608,-35.79723025449072,210.22186127168612,30.694404275650765,-19.374447526256642,-10.79286200185477,-29.403200232915992,-128.32148467085975,-16.246878267430006,-52.49389884130849
0.232,-61.76860011882374,176.39899246932245,-32.97595254026519,222.79293826892342,26.44755895113596,-18.510848241421165,-8.604068654441196,-29.02818584287138,-114.1867450053533,-21.223406147023542,-46.644714685727024
0.24,-60.214319056117304,172.62364726969207,-33.112506273642246,242.45524144684774,20.472574314025017,-17.525119321336017,-2.9282102858875443,-27.03850955381838,-93.02558958807408,-27.18790141939556,-28.677100842551233
0.248,-53.5402389042862,132.7616302387723,-28.88007629794007,253.35310640398023,18.58962957921691,-19.939237966532293,-8.539172126340935,-20.32449101799819,-71.23733448593143,-15.07364210468198,-20.367237626538966
0.256,-40.72688905911045,87.51041122850538,-21.108831870867217,251.23358697453853,19.81147775047141,-22.174852586911996,-20.326132280572736,-8.56891749979466,-37.34329497933644,4.5000404743402385,-29.281541854098204
0.264,-26.3606431586841,55.91396593159033,-13.434566061127379,239.01165890977978,16.092513541657624,-17.03238120123447,-19.800812586212352,7.969198279606838,5.868256177650537,35.70028753639247,-38.847286062232456
0.272,-17.392417528424744,27.044938832129883,-10.389596742331145,211.93529950513516,8.141432838523258,-11.073836907951485,-14.035142420880593,22.44567098440157,17.880398650170434,90.31964015857159,-39.477672403888384
0.28,-10.923898333013232,-5.819515848761404,-12.405735100516653,172.34396238645226,0.9624817524859914,-9.610112887611916,-11.914180413664539,25.46898759428104,-9.020747085242531,141.6367876607958,-31.762219073042218
0.288,-7.496620061162131,-28.695553101285483,-13.89976998534674,142.6546822173397,-5.613858028338128,-7.656340027822787,-5.658413858344916,20.133819548843263,-27.891802770184686,160.0032584489114,-15.443863520737812
0.296,-15.373293011983616,-26.58929183061607,-12.516242286107918,133.7265072904986,-8.07697183741197,-6.488172739445709,-0.564159685416527,15.538946773912294,-17.15501441937699,149.8242604817994,-3.5533750733074343
0.304,-24.317945179709238,-9.941985744608258,-9.898237404178216,117.3049588573422,-0.4782931045986724,-7.389838809169152,-3.6982452847476734,11.291372470787955,-3.1323611253550934,105.14069000622992,-9.733661609345722
0.312,-20.328554906183992,1.2000531709667228,-6.899178815521569,70.78214992749355,12.82368000284337,-4.2915148261561,-3.7178110097277224,3.0581369641399214,-3.731873624243316,20.802023124722556,-22.197954873299196
0.32,-17.651211378372697,8.30185255915984,-6.500563244202708,25.29856395826686,23.14878886968886,-1.6169519403018304,-1.9415975173561777,-6.839282125955852,-8.493729128534826,-48.414198101045116,-29.38877271035313
0.328,-26.356536712721503,10.8381590339394,-8.8135183361756,16.36865181542999,27.114030613055615,-5.185886950045698,-7.1310172419474265,-10.49415721964091,-4.020504936589691,-53.68790688605851,-33.484649628463835
0.336,-27.6823582492933,-12.921182181131163,-5.925969494804177,22.960433827423362,23.719369810836564,-2.13729145015922,-1.2949502165413678,-3.281265087379523,3.1203738481251158,-32.5016142463492,-24.420614439505712
0.344,-16.305832631454688,-57.57768096150709,2.03473021125392,11.73208953364992,16.7603007776906,12.072134404840732,22.94121537889568,5.260808356301642,-6.503231878806895,-29.816177587229863,-0.41443683814999493
0.352,-12.629158431459782,-77.16908916707796,1.9625325875125057,-6.690119856359001,14.4708117540763,16.746237622230282,33.120570010623126,0.12690148387923628,-28.876488006060118,-31.379928466494775,11.749242904493865
0.36,-20.707524918332425,-51.215014375932526,-6.829626345826002,-11.007548086258655,16.859529918896648,5.03394852819565,16.39567866914774,-13.264043303645327,-38.06993967598541,-30.79465030856053,4.503470896758851
0.368,-21.875689213959564,-11.589676746974419,-7.428482090030548,-7.198856211926467,16.53878304578702,-0.6239656337832951,5.31967032474204,-14.200447456670029,-29.412464016803398,-45.56334685932406,-2.0419602149008584
0.376,-8.625573567525965,5.010113218516994,4.117998006387721,-7.416632971332167,11.520385503556788,10.093065571754975,16.243769620240982,-1.5996390468736046,-13.583202214401544,-54.21938669604626,-6.085715890167908
0.384,5.82295289617271,-5.003547831738082,10.906612151151377,-8.351965575616386,5.8007470725041035,17.99022133044001,24.55419186522493,4.845390904111507,6.351372778575038,-32.54796040669291,-12.413597283676374
0.392,9.94531307541864,-19.84942565569997,5.940359796530691,1.5734628396732648,3.8216750189119506,11.4376753142681,15.808369053437351,-0.4051923806010612,14.201990366435963,-15.758904014176702,-10.13403233632626
0.4,7.867496296933625,-23.193762744582507,2.29507293968807,21.610101082066347,5.568283854349603,4.833803408530255,8.023298648938873,-4.016839200876457,1.044833095037189,-25.628948515990007,-2.172173468217852
0.408,8.604728231672052,-18.604594883655803,5.981339300576197,26.62371128863539,3.5438871515477284,7.768579539962695,11.77978782987544,-1.8775317768060384,1.666114658058893,-20.042592476266908,-2.724760119354246
0.416,15.216885484591238,-9.926032633919261,8.747297859845848,1.0443109785824023,-5.975435357500942,12.037217241556409,16.018970119303265,0.7767758495815812,31.043563219620566,11.930483469589745,-6.6031304119135195
0.424,23.31479039083769,6.596039112944711,8.95588078103109,-26.173088593955043,-14.295150894258303,14.49893292143075,17.939754698733537,6.231765444626994,48.3725852627627,23.766157838352356,-4.648303165798851
0.432,23.83692422893943,20.860824897843827,9.964510252928202,-30.020602947907165,-15.57046629430383,16.546860596204535,20.959176009916693,11.955811386736064,39.222707530012926,10.673520120515802,0.8611315644513252
0.44,19.714384198332745,15.004225351422209,8.062436473628502,-35.329533888855785,-15.263828317694514,12.892472449506018,17.406294331708178,7.7134275632969,26.167902744996834,5.126040976020879,10.02451002721149
0.448,25.03461141567599,-4.617604856680028,4.406298066631237,-56.805982314999845,-15.896349740846075,6.752094046611288,8.788919739862164,0.48585303819869613,4.90498615884889,-0.20303297976581253,21.334453942375134
0.456,31.602431271183573,-13.455596846423886,6.344810419408345,-62.75624085402576,-14.977976297459941,5.01657765658088,4.329387687851794,2.7611168056831943,-23.63944927972214,-14.468518816900428,28.746428142492345
0.464,21.470232199601785,-1.3844409385808265,9.338117455443976,-45.79010174536152,-15.24615549817967,-1.6516757018909416,-6.2857271229384635,4.1435867910027095,-33.047046930266504,-12.631845983137465,34.536773064620654
0.472,11.486608289633672,23.359598148616186,5.545081632888243,-42.47446360853584,-18.228351059976347,-14.738033813596376,-25.486845214716404,-5.317264635081404,-35.05870490768341,0.2807824601041988,37.2108855260795
0.48,20.004289599591687,52.162189609788676,1.2803449287706177,-63.82351100236056,-18.65778311404525,-16.08024135676962,-29.356834176089585,-14.1362860721097,-54.16962964236063,-6.271571928573399,25.901687812246706
0.488,26.480521151787354,82.44932627847432,4.4857284411391944,-86.46864060149744,-17.33135540726349,-6.15684858877616,-17.182554629704015,-15.013250093877437,-73.52882993251299,-20.988194367356833,10.548520184433475
0.496,21.105671355826733,113.92265119910805,12.294764978771118,-97.36798949498463,-21.777730734053517,-2.1826411867735733,-12.345623835166052,-13.498538836346148,-93.83842322236801,-23.980919810939618,14.980453369866352
