time,C3,C4,Cz,FC1,FC2,FC5,FC6,CP1,CP2,CP5,CP6
-0.2,39.63946868349587,-3.199809517533557,31.225151943224848,-113.49347631894842,-15.263657308005524,21.56637720848792,22.832003031904634,24.78732827524277,100.9703112180102,-161.07649134611546,55.644969594702935
-0.192,41.370797446058546,2.808272207778146,36.5962904953943,-84.61512268563945,-20.15553097496157,26.58437200525836,30.265008586929486,25.626717771789853,131.78464293744946,-137.65980714113587,48.815345642875336
-0.184,49.926402158381244,-25.4297730857273,32.34885025729763,-48.695928455045774,-17.551620708922357,24.90820643165862,27.05896789385039,29.900253768707813,141.94574849659764,-109.85006793521605,37.508844307512405
-0.176,36.91293452968232,-72.715715105255,29.44055664461286,-21.279944627599832,-11.628909148116847,10.285411941120941,4.335307025394815,26.12586723749911,124.81986221392201,-58.18634957535441,32.852553061275344
-0.168,30.34409590525625,-115.5236288049002,34.0868977698293,-14.941614430415791,-10.618338050465546,1.2818653815213819,-11.809875568329693,19.803148219044708,114.11141696215658,-12.430566016136769,31.142406288878185
-0.16,45.963219250276346,-162.16857040699,37.23345592960668,-21.935957118312352,-16.486173040442342,8.269646247830472,-3.9619934402763297,27.110843906493827,122.10220396625219,46.119080394433915,24.996079935921465
-0.152,48.54224729305547,-196.6511195132601,31.65083360905617,-27.676527511801837,-24.765855884432245,12.865875317564852,4.633983078903808,38.6623036958263,105.32564869550768,142.07412525161658,21.848298675236343
-0.144,40.8575773695845,-181.65574702307714,22.95829666576925,-36.59969583568658,-35.10066174546994,7.2658397288072,-0.17452440281166337,39.15549822693649,48.3807833769936,217.21686608542376,29.353913377635205
-0.136,41.146265953852975,-132.42832808231748,12.260677446047147,-49.711522515179524,-41.82788066825156,0.9656239261980375,-6.616145959754797,28.44613203310228,1.0583917279541784,234.157539002047,31.052816734569753
-0.128,27.557474072688855,-92.69745550104253,-1.0095358741614189,-46.37511989681204,-34.487911000814904,-4.675295505866237,-10.40295752314715,10.789996730920345,-13.587772293344958,220.35196251383616,15.529887982862865
-0.12,5.017161151100625,-68.75607327889672,-3.518361449137433,-25.372516956658796,-17.054111829275616,-6.080200068499072,-9.450687674382431,-2.431147245471121,-24.03536776478508,161.23088804220373,1.2740483794332043
-0.112,2.114568238016381,-51.91543628419004,6.1261951849306655,-12.384110539178318,1.053774558506924,1.9842266140705016,0.3972072691876697,-2.8709763917033513,-37.741834002869375,47.016329648859504,-4.155692744444455
-0.104,1.2373862871398875,-38.9890538944729,5.2743063243531925,-7.007639784039768,17.958007026576656,4.468695159152248,3.3305037523610026,-5.925992898246732,-47.438349244585446,-42.74485109807008,-13.764099180377325
-0.096,-13.245121672423329,-8.058300974927372,-10.21607413575312,8.294901930544688,27.02582382699845,-6.590839702513295,-8.034367264053968,-21.445191585182208,-68.29147713715327,-64.73886560731414,-21.81250141712312
-0.088,-22.859730916631072,50.89868249365176,-20.23114856889763,17.985925231363197,24.05278420098632,-9.349393636057176,-5.743558883122065,-32.19467320768158,-96.00590113194635,-73.10566147574251,-18.796862385889995
-0.08,-30.540309239750584,103.73134977499717,-21.71277333951594,8.350492660232941,18.594356817036225,1.5443932924274,16.12143336000249,-32.575628586747875,-101.03233992492972,-87.19773642999506,-14.202151883695763
-0.072,-40.778704886674525,127.82442321582693,-24.92316528082561,8.070680356408122,13.544785943471018,1.2723894397716073,20.025763298493978,-35.6590231867911,-89.37056431418341,-78.91258907923293,-7.507890717250842
-0.064,-35.24535793143756,143.0053184998358,-28.848547269762758,33.96392289239198,7.171543108395274,-12.423103946656152,-0.5961795417356088,-38.00639455597623,-88.94364655288283,-75.223423826124,4.92355868682813
-0.056,-27.668573656609688,159.67685828922814,-30.697222026294682,62.47391685818608,10.883270628030301,-17.581338617416034,-10.446861180720026,-31.98319127384127,-90.26121751735289,-110.78355593226699,4.785266866978935
-0.048,-39.404713074874635,164.3914817212978,-28.81601249687679,76.23473703428077,23.494946709249387,-12.388323694826981,-3.721178547590072,-26.20060003447948,-67.93421240202042,-142.9213780836733,-12.793532523362542
-0.04,-42.47158642872574,153.40116638317554,-18.473822894627737,74.93648289421687,25.53558517095454,-7.6706964296203095,-2.0292084017139906,-19.967319930374824,-30.42355241275207,-128.55746899828912,-28.504642791007605
-0.032,-23.054530996975366,126.69962450618594,-6.955202515522744,61.64945606619648,19.404986572663383,-3.1315048143842787,-4.938286849371726,-4.1568786241948255,-5.482312511414448,-89.1153744323119,-39.05003765519193
-0.024,-14.95688371742043,78.87988683630157,-7.065099923312838,50.09001570032901,18.556546980062347,-0.8400380330647673,-5.070985893834897,8.172204606192247,-6.433122115031703,-33.154473266200185,-47.56068227752979
-0.016,-27.248257200957916,26.027890740977007,-16.20932819236519,44.47389401920819,15.549768644494723,-7.0213194694870875,-9.241614398580712,1.26296936039352,-28.396439001129632,56.74926528027267,-45.048572781613665
-0.008,-40.607458071887244,1.0552937437789218,-26.870921903291563,33.978998331104314,9.442857103587974,-16.021020459710265,-16.764489987232906,-12.202150614621676,-49.931613132485346,136.52418165778698,-39.97159982244768
0.0,-52.548370544221285,11.788763059555622,-33.654296399776605,29.58575270085581,12.671613068144898,-19.48984831576787,-19.997261780370263,-14.224095696836972,-45.1892881359766,144.21842236669832,-46.559723354775436
0.008,-57.97237185547958,33.807868344928345,-26.967023755196,40.48931813419615,16.878957248114077,-18.433473041232883,-21.345345469039376,-6.543800971161411,-18.0931046562136,104.01044247795011,-49.204729830606645
0.016,-50.39871424394844,41.90520777830281,-12.822146919191278,40.9096681611495,14.161859848723898,-15.41594503482462,-21.74898824459343,0.6062846810308128,-0.5477826256713558,64.82785405749057,-39.1180080982153
0.024,-50.49691277368146,33.084473973768176,-13.459524499338645,27.04780805378883,21.176934667269478,-11.624163951406274,-15.194852938826557,0.08231609939230426,-6.669690581224031,24.025671295014774,-37.28992970198255
0.032,-67.9980418119597,22.276363855083925,-28.605051474061007,25.907854965815485,37.73990945584488,-10.554220071565188,-5.584952801451676,-8.30152328679156,-24.95015806214282,-13.889933034311287,-43.70655053225155
0.04,-81.12302337613737,21.83834322488658,-38.435635398342676,27.734404163373426,42.551896452409764,-13.645405985322904,-3.614089289413681,-15.434067791722107,-45.10172973150922,-25.09030025858066,-36.67120811917599
0.048,-80.81216770925307,29.44581667428227,-37.77862931139316,14.344780946724297,36.88126766349507,-15.172585743797047,-4.9489903195062155,-14.398815710252627,-58.36168337927627,-25.73354487227944,-21.95374253269462
0.056,-75.08728859123205,37.37984077879991,-33.34712271357102,9.80677915281326,33.21048934517593,-11.114679956805984,0.5622552087121581,-11.652034995837097,-58.023709314131054,-38.69643312559677,-15.100289330406698
0.064,-72.1769916308408,47.18166626941294,-33.78569131581437,24.040822290191485,32.055740611819054,-11.668417791634774,0.9704169250940049,-17.249037848668905,-50.80131689280855,-49.176843557118666,-14.204582093635198
0.072,-83.11741826188289,63.9194516058178,-44.52991660582891,31.46617897614691,37.418691724211435,-22.50593208030975,-13.22159868643923,-27.6037453283096,-42.76422511899823,-51.62716161184363,-23.623289810339354
0.08,-95.0768928406363,77.21899126963993,-51.12670181610277,26.525559125780724,46.78868637850695,-23.497707758696258,-14.49443002768187,-28.527708456584627,-36.30851462925595,-58.92766299344422,-42.22801912309822
0.088,-84.2225489607815,74.5889956859809,-41.977316403787974,22.175296904328714,43.908253837302986,-8.07528392981697,7.115323269164071,-20.89812819563558,-41.4470554826131,-60.3006603857153,-44.89816063734087
0.096,-73.61998991017936,72.62199570272784,-37.45559248451211,21.04031364413785,34.68273972035757,-7.478765214273835,8.055820359692916,-23.507973180153726,-49.76254249896081,-51.6131224113817,-30.86264165811052
0.104,-85.53174035794314,87.98303724477731,-45.47499300185016,22.596558947621816,36.689689433697076,-26.448830088894322,-19.75079326321469,-35.73218370274502,-34.49636904006204,-60.79832163479555,-27.60416279929566
0.112,-87.05109979283647,94.73929496423526,-41.03079398890541,25.66287210957027,39.260082258426365,-28.775264332233714,-26.303294432300945,-34.09382673775264,-2.3182363501775205,-84.90359855652856,-31.031649957808057
0.12,-70.94411848898588,71.86952303095487,-25.97816848754616,31.14850231793311,33.75000342587613,-16.690389506751128,-12.739275958994778,-19.15804707266479,22.054242663942134,-87.08225566297092,-25.536399090366732
0.128,-70.89542074161027,44.76729374520882,-26.814848198760945,40.65937283154948,35.217379860239426,-22.12898715663132,-22.72181599667441,-12.906150681324238,45.32272125245961,-71.81049452762525,-26.1655655412609
0.136,-75.22456738620379,26.518596515174806,-35.52962384019802,40.4007914996611,40.14176652770803,-32.79555786154502,-39.87722092648261,-11.43371872389545,69.36131244243663,-56.49697038180991,-34.54234970196268
0.144,-62.831458033786184,-2.6562259454694948,-32.10927021541336,25.92616170247842,31.263952778458684,-26.5786977528574,-32.56225682268376,1.836674763550711,69.92849186310666,-8.990991158176294,-29.379494318608078
0.152,-55.59199698179799,-36.939204501822196,-23.939442960997745,18.54307881245663,16.783851158270792,-19.140966862406902,-23.044125843091276,17.5260247383011,52.629699372045984,78.2266146751011,-19.357800173025996
0.16,-51.68380969162242,-52.11168752690252,-17.864791897887592,16.44741209659304,9.794640352486123,-17.805018128760278,-24.28460959731798,20.346432298331834,44.06903087251434,136.9721256119973,-24.287943584166605
0.168,-35.379347311152166,-49.00817970689432,-12.351421994056732,-0.694150210989541,9.621524043514219,-12.530741558942053,-20.5536479277346,12.80320284280654,38.36211396565154,122.29698125370834,-35.02183481891477
0.176,-37.963578457484715,-33.64035388649377,-16.461292042673257,-19.359753124097804,20.187648213760202,-13.079983705975241,-20.324828996584348,-1.7027913258254974,28.426515508598307,61.28687831373745,-42.26008353143537
0.184,-66.21649569414704,-10.312901580745349,-29.734910676520936,-26.49137991841112,38.760935147669414,-22.992598334704958,-29.267835770199394,-21.09613436001066,34.32965774801957,-10.220954553662652,-49.663953271475016
0.192,-73.26163977091147,-2.9112103312078728,-36.87748716869939,-39.500495959473604,48.205345017773375,-24.61648098831998,-28.27918586703798,-32.79536481830515,56.056646591963066,-67.00188134925052,-52.23606752537288
0.2,-57.61193431551254,-23.80546600321206,-35.86611275772141,-55.35295721286363,46.476491076119174,-18.813993296579717,-19.871737300716966,-29.899243902368298,64.29417835773349,-86.72645171739411,-44.58605005188413
0.208,-53.51192834465147,-52.64561542806533,-31.089984961513892,-54.77023524385797,43.44688746834632,-16.285957150314903,-15.824005129346935,-21.77797377650285,45.08461229559114,-80.56711082846898,-27.86569856366794
0.216,-53.077735031044625,-71.34616385898937,-21.589130448170156,-44.262352371902956,38.60074865785931,-12.884000791190427,-9.476710985466028,-16.58341487149572,11.562934866665548,-81.70711450090067,-3.844972830152437
0.224,-47.49356998720159,-72.35016837852356,-18.169132021860488,-31.10411438511486,34.543049015506874,-13.035305521770752,-8.324785208078739,-16.035627335007124,-12.315961609217496,-95.928250966171,14.217436470132865
0.232,-50.77333146081303,-51.00272813624881,-27.65137292963866,-15.256357375064804,36.277130668605075,-20.458240004453003,-16.80759533140564,-19.481604004245998,-12.629491291144953,-107.38598421111637,14.335250256526459
0.24,-47.547208413417735,-23.332370587130892,-31.17218358943335,-12.827651211137638,33.84406079977485,-16.950323568279465,-10.5339108112798,-17.92060817391563,0.744498511671922,-110.62036112796858,8.540321855301
0.248,-30.235079207778423,-8.232962491023764,-22.099454288777167,-23.98627870048951,25.583595547339073,-5.903094553797025,1.7187227008386057,-7.687075700412437,15.547796057138047,-108.73217462423885,6.21597407003116
0.256,-34.181206742874586,1.3880284791012787,-21.123746710107245,-24.11905055834208,27.146501710654487,-12.736732431655183,-12.640028559001248,-3.584317912642928,28.748956719492472,-103.50872040145181,-1.3240137700392094
0.264,-51.453819612998615,9.139235960690096,-28.13874966235311,-15.5603941245031,34.339541755828364,-23.045354453625638,-27.183408045209006,-8.572780467366687,26.729866682683866,-97.55564275079749,-10.360908526688931
0.272,-36.04942979398825,4.509845450889041,-23.57233449664006,-14.935705460462442,29.647840201175192,-14.191448533216866,-14.677848106922736,-5.549058579457526,6.7235092990719405,-93.55379914470113,-7.812872587564664
0.28,-14.494321008505223,-0.557252569547423,-14.946961994779494,-7.653481576518083,20.89797846064632,-11.757405700966794,-15.295808059948179,1.393079540585387,-0.21868092165609718,-90.48327550517347,1.8064696933779016
0.288,-30.512533206444616,12.074139334475825,-17.15530817486673,13.567827028019524,21.01613996779525,-26.967191458587614,-37.54431853142832,-4.0134170880037034,18.617592217304136,-84.81094986779817,6.677504080166099
0.296,-41.806896502670845,28.755087291792854,-17.491923368551358,17.845599892088742,20.411254153634186,-25.913271008903987,-33.602807067004356,-8.749146715557641,33.93812665292614,-77.36920183360871,2.7643151228721337
0.304,-17.51923852512971,31.823049586714642,-8.033359004454608,-4.475508977683511,14.089120905917747,-8.90301547957187,-12.8010520490607,-0.4305044212365862,30.08416217398235,-74.5607319619428,-5.3937606251771575
0.312,-6.025207642116647,23.986028630533422,-4.183565646344437,-21.445781882794133,12.202453502036656,-8.277672825689622,-16.207288064907377,3.5975883080520954,22.57467861152594,-73.10883735449899,-6.174373598694666
0.32,-20.464451959496508,7.233124520494776,-9.030071116780125,-22.896931051037612,14.678887735319744,-15.446934510172074,-24.11756192314764,-0.8781631600195966,23.78796745068119,-56.57539571610796,-2.0366206571231036
0.328,-18.365254470413326,-14.400390272922888,-8.11762014584609,-26.060797518509563,14.099049516476455,-9.314814538291344,-15.208441765035808,3.5128034763006117,27.99656201277593,-25.551784197718888,-9.45213508096893
0.336,-1.4710624457062327,-24.163273194871067,-0.9014467964590379,-23.206631594256315,11.210096386229363,-3.14027267486781,-11.600742332055441,12.061402904860794,19.00632239919169,-4.927323042995312,-19.230236902526944
0.344,1.5213441980142959,-17.49616164861948,0.8744006446098127,-4.096777910745439,7.296870617500279,-5.064200459811181,-13.532335836866391,9.376536981555576,-1.3548752553662817,-1.3105401608040668,-10.866437255518608
0.352,-2.3542484996560584,-8.595332580042761,0.32087430519160653,5.505784501363999,1.3900228705179205,-1.9803367545124724,-3.8526101637294885,6.423161552285614,-6.451705843703651,5.383091628238984,1.9854219880914892
0.36,-0.6763372055256466,-5.523498215835547,9.034882148804577,-6.128969998071652,-4.32806918580171,5.926091081354179,5.719826247738025,15.667634730433369,3.562618806306689,19.841221529131413,3.644511064126842
0.368,1.0032033593865206,-5.042067239722718,16.359207455400846,-13.196788157764795,-7.55102641773688,8.458427091046458,6.743987528848771,19.002224866297162,0.1267425024377189,29.137255405854496,4.5802749860178364
0.376,-0.5374532266999532,-2.456252559668452,4.990942104447113,-6.911038884157601,-5.529069852660159,5.576179460806224,8.536770087070947,1.2346512262298162,-12.81604605017881,28.8096200719578,2.2249630589237235
0.384,-3.0402153023179914,1.6070397691895861,-5.880552697379361,4.583920978871589,0.9108635409742178,2.5197408853131384,8.37747978106234,-14.140564910730825,-17.38682900200807,16.86167204304262,-7.639070782599077
0.392,1.359883370570088,-0.5910763308891885,8.442835011576912,26.281256799418994,0.7012498004555288,3.593844584235533,4.556234271786229,-4.143303618371769,-21.573899710484685,-1.9691130449645933,-1.6800626308816677
0.4,17.076842083310847,-6.827222028086275,24.778788724482137,45.19215743874857,-9.144193604214676,8.083367847423968,6.247284796362689,11.209290508401958,-20.911229224255035,-4.425350622621351,16.219043655223793
0.408,27.500758277281275,-2.466069167756993,19.588378322452257,38.44606897976685,-14.699454974383116,10.93226487896779,11.49705897336533,11.452721103150637,-4.870407406103931,14.065461900697127,12.637234090352905
0.416,20.36467040334902,9.199408673300761,13.266631852418621,26.95318134571661,-12.32713739947774,11.208126712728287,12.94295687299239,11.969156715926111,2.9238336320643348,25.04848759605287,1.8148072683620258
0.424,7.788196964833062,12.721186350254156,11.53968684619662,34.69538701617369,-10.437954000874468,6.406941690015711,7.333703466150641,17.002733458323252,-0.07123559183120898,20.864120054642775,9.904728570681781
0.432,-3.7467060408166533,11.851647578667256,-3.319245237299628,35.4615322034603,-6.552482890847525,-5.691301784893462,-6.304784341113152,7.539857917297743,20.830813460684784,24.70491818234374,8.49813983825336
0.44,-12.683746991729455,10.442351711781992,-11.581904389027104,11.065608402030303,-0.7590977828330331,-9.302918954319297,-11.34910981430577,-5.505309203396769,50.2622458138913,39.932520003895654,-13.637002844744226
0.448,-3.5748504808389763,-1.2961144878269395,5.776890051104925,-12.18897927086544,-4.4462837145339025,6.559922314396122,7.160834551303181,1.7347228758309992,42.93504862977763,47.54314000570226,-17.643169079275836
0.456,15.734939751583417,-15.413950720787229,14.97670747162366,-17.312382418343674,-13.084894604833593,18.24973224692713,23.927851196150524,11.719625123999844,16.138823093071174,44.445230139744076,0.19529590141007314
0.464,12.631209283644358,-18.09383219184585,0.4139477816616903,-15.31413945336066,-12.83612863053396,7.9608027104513805,14.360172511227997,1.927075942207805,7.0480078417763306,43.42026714749376,10.411779239849663
0.472,-2.8575114298305224,-20.71481387533317,-4.793439522727708,-16.870219033799223,-9.281001078375796,-1.8944054788021527,2.273125596367613,-9.243859736425911,5.289959869804557,46.358312978871176,12.658244006989246
0.48,4.452682532406851,-27.470786781894578,5.404880361354726,-23.581388750257663,-10.409484879949801,5.677063898425999,9.994804850422407,-4.220320602242077,-3.7707754614682374,42.444883445750406,11.707678056434432
0.488,16.787252645924987,-21.30563577370453,6.9257539344589025,-26.880680753909548,-9.32728908500644,13.029066091237663,18.63604222028262,1.5861158112459817,-12.39364216593842,30.32001973662933,3.57238984227014
0.496,1.498824718887351,-7.267080258098022,1.8835874409243978,-20.816480525405172,-5.036234988900514,8.779708924108911,15.630802455153969,-3.237269363195527,-20.018382494173718,22.019571445212716,3.9310468765050888
