time,C3,C4,Cz,FC1,FC2,FC5,FC6,CP1,CP2,CP5,CP6
-0.2,-7.301975047481538,73.76228149767012,-8.25222833545136,99.4255885274526,-2.396184535603153,-7.714751356142213,-6.609430402449917,-4.6209916593251075,-58.01345562725011,24.637823478974124,-8.158667295093403
-0.192,-11.634669000246648,40.9237542672364,-4.2010202734272655,63.67010660626893,1.3953949439892521,-2.8850460704772867,1.2008690479718456,-12.546792908215979,-51.973578024022686,14.132348056952365,-6.343859341022577
-0.184,-13.779328078110336,29.252657690354216,-9.86941750931363,41.43002900074435,6.304996117899826,-12.327605182108353,-15.361924871088803,-18.92263332117346,-47.85290561324267,18.783105283837937,-15.434183391018838
-0.176,-18.796182360324575,40.078741181480915,-13.299140018750695,39.50690463035537,12.313057868224588,-20.495390516371632,-31.630980393915145,-18.08556371030556,-28.199970331723303,17.793087596407343,-32.27756495157614
-0.168,-14.147741574340506,24.214121282394455,-2.51560727880778,32.379123584205004,12.262765402529343,-2.3492599286767417,-5.049799085826657,-6.200518872608577,-16.438059760938692,6.5442930267626815,-32.121487696623404
-0.16,-2.3548136950437444,-21.18184783444264,5.918149481707274,13.63837803593924,8.583219414192634,15.809430173142408,24.649453355969627,1.470780185929722,-31.58846153890342,2.100953531666795,-15.002672546036429
-0.152,0.203457897103775,-49.63104311423825,-0.45783403557067914,8.859268104299112,8.93670229105239,5.428081266811513,10.776158694031281,-3.7408067875689404,-50.97503188580089,2.231965779669723,-0.26284094262662555
-0.144,-5.902767966307599,-46.89529226923833,-10.414302041890974,17.466224042230163,10.031184588215392,-6.907093665023481,-4.381806750038886,-10.156316116778749,-52.72505791087765,-4.176576043248776,8.895022464652333
-0.136,-13.173957487087229,-27.001723735976103,-16.176151020712126,13.71293889886356,8.797092152242294,-2.2553924706326938,7.839817704741531,-12.210761354218599,-38.111390195606674,-10.613293243280964,10.51398404822967
-0.128,-16.974570475836714,-2.9699985855268576,-14.668804708960257,6.299216120646091,7.33578301780353,-1.2324718627472202,7.5856410637424,-9.875235821726054,-14.090184409181138,-7.923922047024349,2.0736219103429687
-0.12,-9.594497101065008,3.4897993332670976,-1.9047987507461401,13.31909217545276,2.870892669235509,-5.158325860474053,-6.977878084153505,0.8053376739680158,3.9502152609254866,-1.579225835874768,0.4165822391844804
-0.112,3.4217671425571625,-12.440237830718873,9.338693614975531,16.65125789936461,-2.449609990799891,-0.20041383313973832,-3.375014448689715,10.703169226981215,-0.7338040822986501,-2.2420808275219257,10.730405603479944
-0.104,7.313569224734071,-24.380812516060374,7.225068839161985,4.9354759759872655,-0.9065171550162459,3.1406249242822524,3.2219452233267334,8.151359869807708,-18.917700864015824,-9.804027313284992,13.329651760421132
-0.096,4.137144995544136,-19.898691866325695,3.26802230162034,-7.4981244318282965,1.633086373519036,-0.3175848895275451,-1.478441079090872,0.15586336601394973,-25.26781007826181,-13.0527358053181,8.769137996357692
-0.088,2.639371999422252,-6.263316875183903,2.547062588176827,-18.037888102331042,-2.8086346185184223,-0.32851285029087424,0.07762215265473296,-7.4105170009085715,-11.404543166565288,-8.183046287968738,10.161823886099214
-0.08,5.409158438590061,16.626406662994803,-2.3665683211453756,-26.55984122401494,-6.647836473562308,-1.4391073405795458,-0.2414044431203757,-15.594025101384018,8.638039031461183,-6.081942324881332,5.450933949325205
-0.072,11.726772724962235,39.08586393020557,-3.5105347013401844,-26.61366337167339,-6.001035880381146,-4.195785709082377,-8.195983474250706,-15.292572413960904,18.960651144230273,-10.15738944834808,-8.003928771819698
-0.064,10.839158355944807,39.94544149692433,3.700598919700494,-31.021674851308088,-7.821591303223474,2.7680004998940397,0.4747436782682669,-4.507780526003572,21.848818099225454,-7.872219777609166,-6.20850085366819
-0.056,2.4624329094408064,20.035319975849543,5.700745569629208,-45.04104430416468,-10.317091893070318,8.387227210579027,12.031223699347553,3.430324727819516,26.95366963648565,1.515522922534024,8.009557182025068
-0.048,5.255625550762799,-3.062512612982463,2.7111252934855004,-43.09410266353018,-7.325023944069389,0.8718023076973362,-1.0091425347609038,5.925371573178018,30.57950985795501,2.1424116127409585,9.514258321957833
-0.04,8.98586991357018,-16.7491701795121,4.378721535039495,-24.432456004390346,-2.6797251438106295,-2.974095643482813,-9.882115319510635,8.546451748907112,34.59298093549827,-3.952651054677292,3.5654604967446653
-0.032,-6.697264737880427,-15.00835886622613,4.4299198044601935,-24.55615735227085,-1.315700962091718,2.236923035750042,1.7157710374682298,11.200448904549516,52.01070445973186,-0.3958788049361191,4.754695579826752
-0.024,-12.024696289721772,-7.279280847926739,1.3280195031636688,-45.96441820611825,-2.417405235764425,3.5557958906782874,4.190466267844226,17.164149316087578,69.69989435775854,4.996699404667852,4.11952001967071
-0.016,12.774761294734873,-11.685793186616138,5.511199367228161,-51.6745294854757,-5.467221102337657,6.149390957936776,1.9250428214405872,25.116629946138367,66.21337490326572,-2.5234405447564674,0.6367187509749
-0.008,30.151919229582674,-26.19853620142447,14.023548153141745,-27.81308418401421,-9.863250892379149,12.781754178972845,10.860272626622551,25.025696453303514,56.59032554607473,-8.035537263894678,7.269943533644695
0.0,27.06145413649631,-36.76777079597824,17.55553202462604,1.0133805793109343,-12.047345708275865,9.651806733012029,7.644893513466554,21.46893260149385,56.2537702560767,1.7157559284119401,15.602388046548034
0.008,26.529891480071537,-43.00860902019316,16.56680967832498,8.669387823992713,-9.708292106214401,3.999437402788372,-3.041123487927362,22.954124031100694,54.718442982943664,10.736888904365848,10.607831532685516
0.016,24.13988417930989,-48.84611744121667,13.991613146351565,-1.4609456389305018,-6.06823806332389,10.215988468591224,8.096731625911008,21.42021477477658,55.67423939763957,10.087259907796874,2.825380180876037
0.024,17.71814504896215,-50.98805185446117,15.193497899566733,-0.08562456291716433,-6.385458008926405,14.073642563629557,16.487919864057623,19.36221067696995,68.16914771563644,10.08473170090924,5.077236222633185
0.032,25.149870434988056,-48.815030361058085,22.902165851691414,22.813984996298114,-10.283154264569507,6.937097975507342,-0.12221998091505173,29.97202393563108,78.5063738063947,11.895267299494416,10.531062063464322
0.04,33.67959816906432,-48.80823060868373,25.951618274227222,35.576286531491384,-12.977209606429915,4.82119458470493,-6.458150452142526,39.72400032900448,81.94823476556043,10.95639622087805,14.70611720701892
0.048,25.969833559472804,-58.038343975402064,19.20969277628912,21.80092385590646,-12.520945237495916,8.654751829691508,6.079995243215906,31.24294094634758,85.29977422402598,9.497222976976138,20.995556121884253
0.056,20.339040047422476,-74.22925481844482,15.378451993985351,12.003659912709713,-8.860063902504583,5.563495384730477,3.990466501860964,19.767080025857634,83.061150683245,5.963023163268974,21.58014918654759
0.064,24.479272162560676,-85.028222711192,17.93440956138229,15.820355423044113,-3.367612228408184,1.4817276807346205,-7.007876167536065,20.202828891787913,83.15961611832915,0.052699569084903364,10.627375006983751
0.072,24.334765666711984,-86.53676136501123,16.998065761304453,0.5880228792423232,-2.371426244696577,6.077160662677609,-0.382865397585071,23.412719008343895,100.5851455306228,1.3656744909248948,4.07969080458306
0.08,23.46365079052677,-88.05652122005922,13.571380391478886,-30.340327935086957,-7.78274893336528,11.070580095325639,10.547528475664494,23.072372303862206,116.91519649522156,9.693508994710136,11.862735980515838
0.088,28.330148045125387,-91.3711852946801,14.548346720623845,-37.48403541332587,-10.21846694729939,7.566466161830251,4.021028365301101,20.49942355375628,112.62338506958872,9.400581039396906,16.836880612455833
0.096,30.565484456072422,-91.83589507654956,16.275673828450145,-26.311677537009945,-5.71395690815811,1.558282736257623,-7.964358526675864,14.084040952845745,97.85844240198433,-1.3006038647197622,10.166073370612477
0.104,28.462602097576358,-95.51042577690059,15.012949928319262,-27.544381653633966,-3.452615369593694,3.6128257630359384,-3.3872335820549964,11.474374218264558,80.51720842586103,-2.2906870353941056,9.220692189555352
0.112,22.47166178471548,-105.41016395747492,15.24436539845454,-33.61770467752537,-6.069989316547723,11.70574669349091,12.50162208998304,20.096932935450347,67.4191459123675,13.080973323607015,19.232961875106586
0.12,8.094638589488063,-108.70348814576703,16.412664262245517,-32.582994509539226,-4.490639984308115,12.997732628880756,16.22409769488157,24.453180669225787,72.19286097208067,21.816612241367523,21.617648117354264
0.128,-1.454992086841577,-100.88006805294143,11.702950505745962,-35.855665716252766,1.4074618734873532,7.931659662679694,9.64281249363599,14.46050958246338,80.1387887086156,10.94940194475999,12.71441408488619
0.136,9.504503892422372,-95.85203723945395,6.121108148519277,-38.89248442625197,0.8116180696935292,11.24473781346072,16.4788710546666,11.000107579424078,69.7502738573188,0.6991868282999236,11.487492383519903
0.144,24.598268927042326,-99.13591930443664,11.819143594615678,-29.710459377494562,-6.764651773791586,19.832276369470865,28.74162316480619,23.973336001543146,60.27681655101851,3.0217682981781695,23.552336547236866
0.152,25.151848892382358,-99.44017542550071,22.85333291527873,-19.024878646883607,-10.527643552468732,15.350536573615038,17.09739153313097,31.480521916618788,70.50843190351499,2.0563110077292217,32.12686818312415
0.16,22.2200775244867,-90.96658587033873,23.508806196877863,-13.72080604700141,-7.910330996698053,0.7960504845487985,-9.374091817729031,25.854886555814513,83.30937609659951,-5.776941372344181,27.41504959072268
0.168,21.886258314295546,-78.94158276761634,15.888126992777982,-10.1658383108739,-5.382542470056196,-6.92209846582987,-21.233090070433043,22.391745331024474,88.06020190043387,-7.8274532665314025,20.288400872759677
0.176,14.511354605969592,-65.99105243524767,11.44493549657611,-13.09998611898294,-5.510739041286518,-7.479292808227598,-19.37065805717169,21.819975541921483,94.64606471730472,-8.863359122689522,21.63499500215441
0.184,9.881133555106544,-54.03763379923045,11.950126245624455,-16.90679738140728,-7.709139641400414,-5.6393277179306125,-14.506267071745354,18.24709473889789,106.27317703116816,-14.462247187524326,25.246114306076958
0.192,16.919050274434277,-50.5933436900033,14.693217895568713,-13.858624173139761,-10.50085740861296,1.9217347421676534,-3.1021165233885655,18.271367840239126,117.07799472217302,-10.488343828847132,20.534157708726475
0.2,18.609722353348968,-56.75928963557753,16.9692870701437,-20.420581182973873,-9.517333108244559,10.324901178525842,8.82789836289282,21.35800915709657,116.89539633804614,2.516085105223717,10.415291194671127
0.208,17.256212156807717,-61.76576584011848,16.372177542842127,-30.668614518395472,-6.368038363526422,9.71643320575618,6.776399237012905,21.43114100954213,99.99733426043164,3.585946627586913,6.470686139922678
0.216,27.51461515722689,-58.13871335090837,14.712780299358805,-7.482012332729432,-7.666081535858873,2.764315930333439,-4.872121327226405,22.516422202722232,82.84860335349825,-6.356744582534448,13.151050045070386
0.224,26.384297049606392,-49.675705932663725,12.36164204570492,28.739073849283027,-9.812088367425151,-1.97410853608211,-9.26774948637671,22.316251239511015,84.28469501602217,-8.933938541750928,22.01245374672812
0.232,10.599690679385503,-43.53520719322083,9.440350479136448,17.45614617568862,-8.294632431927985,1.117489739876999,-0.04210673892238973,16.642858193085246,94.41006424111166,-5.780042314221344,21.363714392341436
0.24,20.144078211465402,-41.428749097029765,12.13137891757199,-23.183653544935137,-10.140570547305696,11.408323398112751,13.308910482653165,17.45516134206833,95.83988583299195,-8.124834922395074,13.915778652160844
0.248,34.27129984660441,-38.461520338460154,15.743480540568154,-30.866820083405738,-14.318582837006266,15.004246831737104,15.639635133877986,22.541101736577605,93.7971397745681,-10.074564865583593,14.440630640337519
0.256,6.488692288759339,-35.07295657004819,6.568785001447533,-19.570472048134206,-10.746545625531509,4.100291524544799,6.435060496607831,12.103783382951805,100.02894730586576,-4.082523645769439,22.89308255130592
0.264,-13.435610351264884,-42.18505302064895,-4.109700024773441,-33.28559516786107,-6.222295285153107,-3.1183608659200943,1.9163047261930035,-1.2516110941544631,106.0876080300046,-1.2303098953317604,26.051501207165977
0.272,17.476032888559523,-58.68835162193197,4.357657887514913,-49.858357420405774,-12.000339111820047,5.663377395680549,9.064136675767031,8.451673328266336,95.03376419107484,-11.204494210799096,29.565181487457732
0.28,35.33413127870104,-64.08299615532582,19.30593950603774,-46.446755594549586,-19.733032510877017,16.026229569294088,20.263707296884707,25.070925385470012,75.77812831421531,-21.93072088515308,45.15811826561892
0.288,11.045999708941794,-51.44012839062612,19.476704614596198,-61.48410323045543,-19.556132775043395,18.72288743579367,29.692409013968323,22.99410463456374,74.07652241207458,-22.867972781736803,55.03388124255192
0.296,-2.006308456596295,-37.89998820684837,13.30235988605586,-100.57005379351077,-14.390886073927604,17.63174701657473,29.124465861292297,12.936471483424848,85.18535678781569,-26.576241766824,41.80067200636822
0.304,6.806095510635269,-34.920831684620936,16.03603012102457,-106.79842140623501,-8.525701123460225,11.689446897480476,12.359236306628814,14.205550292940671,84.28078102659778,-41.90313430059339,25.71035748614962
0.312,12.527099293090174,-42.2849884360375,23.65405290237029,-79.53896203532638,-5.600251104749526,5.9776276517906455,-2.5435396654662794,25.135306271475404,77.96512746767571,-52.35568708856284,25.319681280791887
0.32,18.161893886548587,-62.15116892199375,25.22651196489648,-74.56435951020241,-6.659663078536229,9.161530481988375,2.023373972392509,32.00243875476678,83.4376420822087,-46.97691286019229,29.340661173717034
0.328,19.37817671039179,-82.74746329777413,19.007229227299057,-84.40222834729857,-6.600481854031889,10.09780652312464,7.014909657677863,28.08117997351351,87.53473416697295,-40.984588010895415,33.34936902994441
0.336,8.923814654345398,-75.12208984641347,12.82813132336614,-70.89148516773967,-7.193430566883116,0.08256960476500683,-4.547408015439375,23.313341327469487,88.7626506609228,-40.276924837690814,43.31100749769037
0.344,3.9854910966639774,-45.32372484706597,12.67731632667047,-55.314352006949335,-13.578579573389364,-3.854357035253751,-10.036241522968462,24.78028842048588,117.02244704665549,-26.684137330622406,44.66888065206111
0.352,9.339000856586464,-43.66339276118263,16.07894271082304,-53.25299469241734,-16.327723563236848,6.288449518233871,4.234101434384809,23.562928754649906,160.0974410836368,-3.478429571473159,26.29937521205167
0.36,18.92895408811737,-81.6742831022395,21.192971477099025,-31.07273073267377,-8.789022812343235,13.55845549286335,12.481334107766282,22.286616017380858,162.87250956412962,0.7938943824590406,8.162491884890184
0.368,33.89816529941623,-112.441376077096,27.118563071920498,12.45953760507639,-2.380650553196722,10.157714007926788,1.523921186954658,32.57542854122347,132.78001114099285,-8.931199199714612,5.166954422398032
0.376,37.963546387965664,-125.76234905059032,26.840640241438248,39.379046489104006,-1.195521743575875,5.4084386595498275,-7.529615845316992,41.02064179130609,132.05687686319098,-0.8769284779796644,5.7736965827188484
0.384,27.649819431133068,-154.02533618520076,20.174939203872906,36.10716291289545,0.9079067518593888,4.56284208614139,-4.408870363906852,35.1750825086913,155.16209113568033,25.570244920725994,3.039760130748505
0.392,31.179469570243597,-171.27771821906268,16.766532695736576,13.876930770590448,-2.096308960929409,5.59989640621566,-1.8398785377945603,32.01079718800944,140.9191191091519,54.113102454119634,3.6734031866704755
0.4,37.952259260124336,-126.38263538090584,14.147078343706188,-1.704921284566832,-12.230145923156906,4.43056043109727,-4.668473661060498,35.343435817491965,91.94024003883172,80.41998039720933,7.086985956365118
0.408,17.30435903560797,-57.06136630217797,3.6225575633549663,9.93262651933391,-14.206280638989037,-0.9376480609398575,-6.612594554306124,26.69409173498489,54.25849928953199,91.45607281787896,5.1621403416035685
0.416,-0.04230605996004542,-30.46073193557611,-5.052388057107644,22.004505308646493,-5.62356594348925,-3.97817360950623,-6.129098512959239,11.405035127314907,18.747629347535284,81.42017118620691,-5.730026141057839
0.424,12.280105689447877,-33.70582598424743,0.23804935781316042,10.711690829519213,0.9513125567587665,0.6767097608864802,-4.36405453226034,5.295736937678545,-41.63373979639119,71.1321932894406,-22.243962292592958
0.432,13.39251982907563,-28.754407641230735,7.922280942198478,9.54365018395117,7.992810787505384,5.123899065400146,-1.3105641630050884,-2.8453861257076074,-98.03153335775053,60.92174088579085,-36.87446180880575
0.44,-11.866099551588459,-11.999458848568354,1.6432831143518434,28.163225852828123,20.984568543442872,1.7841860987903033,-0.07059631077255013,-22.98665041061411,-118.81333829274887,32.90097512694621,-46.61994810204096
0.448,-26.887974794567732,27.487737963888026,-14.409660597239364,30.29386027200115,28.032151964740926,-5.611602906084374,-4.368252169363173,-41.25432259248877,-125.76544567106203,5.205574505337171,-53.854189342352676
0.456,-29.013338798675665,91.9509943523138,-27.11880448635559,25.170291360653575,23.33881619949071,-12.706105208314868,-11.395921719737666,-49.871334895568864,-145.25087605136625,-2.5927888718517798,-53.24045985454613
0.464,-33.609451041501494,136.5318620640775,-31.181601384903367,41.61185636430434,16.277973073701272,-16.71517655875667,-12.737268357289329,-52.316011945880824,-169.90537671292267,-12.008219560745458,-36.1330486025157
0.472,-26.610491372823862,141.4565367813363,-27.670444035244945,61.444070933983326,8.827513968704526,-13.661083844290163,-5.168445517232814,-44.38420032487091,-182.71957090980334,-31.750012238124615,-9.663619481796934
0.48,-17.394166394198734,148.13790341614302,-23.193693535202915,75.5670016430453,1.0325650637538242,-8.006822230786009,3.7557013739170624,-30.40857221910509,-174.05623601624194,-39.04656945545204,6.458145672070738
0.488,-33.54386079546133,172.52490403283454,-25.097399048658943,100.15123897126361,3.349962181312979,-8.68421527376874,4.879065687566673,-28.069001133182823,-149.98944439299518,-34.15227035646488,-1.3846539662027464
0.496,-47.983429385794906,182.8520506235044,-28.41860989761963,124.55246750846342,14.98139929201932,-14.089055393818686,-4.640975844027502,-32.926310256366364,-130.01273146225577,-36.647716706952686,-27.089362515095324
