time,C3,C4,Cz,FC1,FC2,FC5,FC6,CP1,CP2,CP5,CP6
-0.2,31.414821906683766,-276.9451799026363,24.56058444592343,-169.44359528904593,7.205190439657896,-9.149416545712562,-31.69532342688779,14.394361409649598,127.37255581126651,-26.514853294010063,41.9145305348411
-0.192,12.513146426990287,-276.35452262213613,14.628069257409573,-138.52187924632938,17.243249520038372,-23.101179266343408,-49.60460268101155,5.5654855487106945,140.00032540098732,-33.94103898595338,35.06087940210949
-0.184,23.258751109770536,-280.46286362406505,21.420244413352997,-124.25515964516342,17.9024068192198,-18.059242961980555,-45.01848508791491,10.29231900361926,111.81065193480838,-40.39623593915206,33.223511857717696
-0.176,56.92052192582982,-290.3078677564859,41.88999457716915,-123.24070384711922,5.521725702467081,1.3685972831472164,-23.746795385278137,31.352816846255568,91.95963279937939,-26.707512747739894,38.09048133457995
-0.168,71.64848182873722,-287.0170453888543,45.97866029850442,-122.75234886261309,-5.585458389360623,11.191032779437178,-10.570053121580615,45.72683675980714,93.61235236687249,10.752755426060219,39.88163924522841
-0.16,71.96863739017958,-248.08922477519397,34.816800720417255,-122.49979149812857,-14.156181596269603,12.25644482850932,-4.471877684616949,45.14080672334877,93.54226175059058,44.80659890380882,36.833582432265025
-0.152,69.94596256696852,-197.42738051228073,25.548201266391445,-118.07488340423058,-19.3776536978535,12.148624176248473,-0.13128740770397146,35.305124203453154,81.59547230444106,56.24591959637715,31.356232141723993
-0.144,50.29481186203797,-166.9913271313663,18.402899939829332,-99.88691348255004,-11.951951719762034,6.366456802232576,-4.546919987535709,22.79586860097731,57.88808473973416,45.74535562407654,23.307820593425646
-0.136,27.38759591442864,-150.9295082548345,12.991065573222352,-74.53706328884385,1.4739750474452415,-1.963037204731887,-14.317323685360213,15.358641140958305,23.13194916351665,19.695187964123708,16.93429911172561
-0.128,30.945840009855914,-136.34361772499537,15.81752435329495,-57.702332285512455,7.9651593086781665,0.17585669881215607,-12.977454408750582,11.831609907185156,-13.293056522316084,-6.302917797670664,7.174691594621641
-0.12,42.91574610386412,-109.58370884373669,23.190820510261723,-46.243491509817304,10.955421515903609,12.043018117971155,1.7068838603806937,5.161060135774528,-50.442742152514754,-19.664122171193057,-14.295230689590085
-0.112,32.269319001801954,-39.553895503782854,19.253033408857693,-23.385358194877906,11.362360487702325,13.477628888586544,7.136137556841121,-4.963675562219721,-92.19774018294555,-22.846944872530802,-26.730952635400968
-0.104,6.695292072534276,72.33975703007903,-4.343279131812335,6.061554024440125,2.765458469714896,-3.6730856552572533,-6.711644473931401,-19.895844090290705,-114.50531931723376,-16.85098946820961,-15.839635812878315
-0.096,-13.125136701029135,166.10552442988873,-29.1574738599716,24.80948343629734,-6.503502187764732,-15.229964790230234,-11.227402979659317,-37.16279260490779,-99.70023260292837,-6.551538268704521,-10.330995558924242
-0.088,-19.44462338716423,197.06275792984405,-28.812329255251928,42.77081087289263,-8.655304854537878,-4.327630476156699,9.747878426520789,-38.173217775067926,-86.49254134332546,-8.487563409212823,-15.122087675779328
-0.08,-13.979865575557948,188.88678267191662,-11.085258771205552,70.83932075922684,-13.610694935942195,9.091992312467672,28.233475714644243,-18.315656393135086,-106.9443802508398,-19.355196017343932,3.185902348761817
-0.072,-12.927841559496528,192.20343924577674,-5.617803321291815,90.3051516756904,-21.48879880131132,8.898065441287148,28.727215348144814,-3.976397330643678,-121.28989397434881,-18.75571423934786,28.155951097729176
-0.064,-30.310365662348005,220.76367274055198,-13.985132205383005,101.93331878126644,-19.61651075456714,5.218737226939828,27.054128356579128,-7.81929585019589,-91.11073890549817,-8.704868248774812,18.24079854573146
-0.056,-47.10723251894266,241.36557818354953,-15.995906022375598,125.8951830955447,-13.964334779270692,4.481803383114759,26.62107530401602,-11.506055107425013,-44.15508248667767,1.2418438408194852,-4.596475084171009
-0.048,-40.5231392421231,227.44415953000052,-10.62981632068564,139.63547856709897,-15.790253108194037,5.104524220314285,23.972549402648024,-7.405060720328777,-13.952126033135434,18.752134581644363,-11.913586429963525
-0.04,-28.256514134477687,195.4978039317139,-11.358816538553166,123.38379362022162,-14.27225475950561,7.632053117129389,24.539074845668637,-7.071511430169059,-2.068971420488074,38.84919770644586,-24.825775955183932
-0.032,-35.961836155132836,167.69527685194495,-19.588641119800197,114.34914884502602,-1.1851296344594768,4.900716046554443,20.74558371302284,-11.423945447369604,-8.759361012621387,38.654039918796954,-42.10632591013381
-0.024,-57.35655154342875,148.0196306378237,-29.359311932723163,123.71422310606249,12.264572231023383,-6.858576577090379,6.6311787202639385,-14.854901476150582,-19.11067337950306,18.431311629202284,-39.99026646676961
-0.016,-75.99081218704279,144.51224030000589,-38.97465602065546,111.6483941827763,20.747634628735117,-15.056717791027406,-2.1202786800024245,-20.39981180583099,-2.8693560799598963,-0.7835382440469176,-39.808806252319364
-0.008,-81.23124132353587,152.6770607902416,-43.04594621176069,80.55001296233777,26.299504400113218,-12.084990782115602,1.930086642787921,-23.991261227184715,23.73914596447941,-13.33182226826087,-55.59984979108925
0.0,-71.96376812940306,145.43245776703063,-36.54352805316414,64.64764662535013,24.451370648099726,-4.851709272106145,10.094181118715406,-15.965503458819942,22.2397834282604,-23.97948921920415,-52.20033197825764
0.008,-71.47034665365135,125.93310185274429,-31.36069640568709,56.947775399297086,20.42926498452946,-1.8203095448871025,15.857953105047228,-7.415108350674682,7.010540045663624,-29.477268813563413,-29.819845150275178
0.016,-89.83553667329127,120.52402896520888,-37.52407141584727,42.24343327546924,25.84903714187711,-6.034969306467751,13.343388448083154,-12.673719242840395,-1.2067788313512062,-30.42406982736503,-27.317089637916364
0.024,-92.6825050625814,117.95692737533217,-38.943484017780655,32.394588022696645,30.2082595937637,-8.699583349251146,8.152610336107033,-16.107464361589052,-22.284485943369305,-30.73236620346105,-33.26710477235812
0.032,-70.88954591547433,104.63266472385867,-26.78731200126193,29.995690213050587,20.608803314094956,-1.4394798339014578,14.401889173225356,-4.409962151068056,-50.74393903136483,-20.122956827382726,-20.178882401100903
0.04,-66.04984798112422,109.56157022581381,-24.87144047620088,27.68363448531723,11.858383202360773,1.4680228571224543,19.59531374844145,-1.4937571599537067,-57.8580982399128,3.847420739335204,-11.650519086480086
0.048,-84.54341992851946,142.20209046638928,-41.656234624995925,34.390670407393884,15.73458896225195,-10.332457720397661,8.363835524721505,-22.28614308439719,-61.72270605772573,14.629650547214313,-22.095766162275545
0.056,-89.16993390008992,169.65245599935162,-48.88238203418015,56.1896382085519,18.336175029353804,-17.70897587403009,0.8666907896471457,-38.517072143490594,-81.46854083531994,-0.7988535204525935,-24.522919972708262
0.064,-75.64487427814191,182.11571069227233,-37.35356783668107,79.4207281181041,12.342959974603557,-12.364503199896323,5.874321720488428,-32.19429505606128,-86.74449757463292,-16.45216807373785,-16.45933713259774
0.072,-68.61745599023922,192.79467552013568,-30.157694127727797,93.68431419451042,7.758522580090542,-11.432427367113759,3.503872091919199,-24.905148099448137,-66.41579797067419,-14.427408463310528,-17.05573203819492
0.08,-73.26567511404836,195.1118236603817,-32.435554796994026,105.57039480368682,7.467828557816396,-15.584708820930178,-1.5878202976217841,-27.799981623435002,-49.20341565063447,-8.093344335556056,-17.695065807825255
0.088,-77.41868610069554,186.91899651382295,-31.704886397834528,116.90264013883068,6.961715549467186,-14.946259339105742,1.2755403444907019,-26.00933823547692,-41.171287686770704,-6.074785375015775,-11.740711189619667
0.096,-71.36538955581945,185.5139245073203,-32.33845320654934,110.37142349913562,5.74095564150899,-17.535013109799426,-5.9519009404152134,-19.39260338882749,-26.698031046823882,2.3444661194322185,-16.065569909429232
0.104,-56.455905160769674,187.7597949516713,-37.981532182069124,79.30772161487909,2.6442559726921915,-22.82246518482292,-19.28093973426899,-18.198783605997573,-3.6055496751114986,23.80377144838879,-30.446589604708365
0.112,-41.354005834686305,174.65435160488437,-34.11605699789702,50.98452385380363,-2.766439621902329,-15.410880985213135,-12.227452155892893,-12.679307189642486,15.79033349706947,47.283774782265716,-38.42328922421571
0.12,-32.10161195292648,153.2133585276291,-21.14537458408522,47.34586503968364,-5.138437886237495,-4.0500188669401,0.4614619855518581,1.178099763894382,9.890713311880454,55.96127500264052,-37.45505900671478
0.128,-34.61334767953673,141.4657682841135,-19.21913352443258,48.307714614185315,-1.6691794249686278,-7.91650273099351,-6.1703538625973415,1.1013754089838084,-19.77335255685711,45.04436231720703,-30.74325118279722
0.136,-46.81597117157799,134.92864580141259,-26.24582680690544,27.389699691121425,3.797651848069898,-16.18559798435246,-14.453953395086817,-15.84699988182345,-31.197330106632194,21.56106216508167,-23.31329189357632
0.144,-51.42800065782713,126.53112358198946,-21.43968043677728,-6.920375170454422,7.514675632960486,-11.432911249530681,-8.238558149254441,-20.544322326925784,-12.16991746024346,-3.760099247558541,-25.20366037386424
0.152,-49.53022216803752,127.21304928165632,-10.136866137551683,-30.355021770298215,8.972859903314548,-2.924210506783699,-0.9501279842426039,-11.176517082748958,-1.6455132271169248,-17.692442682489013,-31.774230418237973
0.16,-60.79156785971541,139.85046616494319,-13.988646226133513,-34.37279015748511,10.21952292955701,-5.013238433733106,-0.9959245962963001,-17.491528547172,-5.947383196388594,-18.778091255343114,-31.018870633983507
0.168,-68.48257579022143,141.62089891185343,-24.528206530694145,-26.447734568613225,11.905684358602413,-11.420788693529781,-4.179831684529059,-34.262251259603,-4.547696244634306,-22.8188600848351,-27.577301060723066
0.176,-43.82836822778432,112.31318316990746,-18.162733522722707,-17.328866770057523,10.658457627703065,-8.452125051241175,-4.497887520824766,-28.260605457939125,-18.39543964656751,-31.203360704000733,-24.7574859336801
0.184,-15.901211572159399,68.07531825223883,-5.062351672944263,-8.567597019680088,8.117015689947976,0.41830049014266424,1.7116871020055962,-7.737460701637867,-55.085779574082906,-28.772240453114204,-16.45786065157825
0.192,-21.92751249810634,49.062838802231134,-8.932180299036354,4.675106812419478,11.110181809891087,0.39306630366800865,5.125266500883528,-5.326183476675048,-69.17256535701844,-22.263023757914745,-11.086447395868632
0.2,-35.04327947280481,67.28002679467089,-19.01529787531344,12.467800947948197,15.037992785517355,-5.71237089688515,0.2589549343283257,-14.283498864212065,-54.10464049776607,-27.564202744313448,-16.464670860750044
0.208,-26.922906170762953,92.81353053103025,-16.984800477582716,1.3477142087701695,10.687978930611877,-3.5374662594718678,1.3477115130536512,-13.414372934417814,-50.46080057552978,-35.69510295702983,-18.429592708171025
0.216,-23.55648334152084,104.870034631273,-14.121646203280044,-11.181970915120145,4.837819461756971,1.4116041808179658,9.585138170858627,-12.262994128792323,-56.89626400387985,-36.77829777959429,-10.33586439925691
0.224,-35.49954035626785,110.71012779249892,-15.765439477441122,-4.063784597826009,3.9986174848402105,-0.594468528402791,10.710213275285879,-17.546317670715425,-55.17429708499786,-36.40582840856224,-2.177574328535303
0.232,-30.360161732072566,110.70079554588874,-6.714302856150435,4.773699464792021,-1.1850374088791802,1.2552283310792287,11.21767622063302,-13.608508442917095,-60.717142387747884,-33.10151278365192,5.8458391866034
0.24,-9.811811252236813,105.12617224453949,4.7107716757280835,-1.8515035869644105,-9.43662121654451,9.003088844009394,17.5091475533398,-3.1013712917789737,-70.76066313744356,-26.155317477652325,11.281358346349016
0.248,-8.232458681133682,112.06386507424133,-0.8584096058509133,-9.891202761718578,-6.842477435571105,8.203444210581916,15.581672051172326,-2.6460929638355006,-61.108204533975055,-25.185298891051602,0.1300176479495923
0.256,-17.52609433302847,127.42600373739513,-9.077006004390949,-15.612099894349885,-0.6636392390865342,3.9331137870239803,9.153873625737418,-4.5671129595999735,-41.91318658264692,-24.44058595863528,-16.818593010772695
0.264,-14.397585326852559,124.56078359038796,-4.712705092271033,-24.07650989093353,-4.948888758148301,6.910449353731307,11.877880106288648,0.5394987461726329,-27.24510721754431,-12.428312762932764,-15.465057274371917
0.272,-12.905742497379853,107.63846272988786,-1.666797301974875,-22.670907566916352,-8.232223996926248,6.954185208537752,11.977770381796729,0.8282491994267084,-5.548975875710046,-2.9648609754056836,-9.673640180634974
0.28,-17.588267153874572,91.98230722251985,-3.906879482995804,-19.64980179465765,-0.6713400784853666,3.1028839988852166,5.175645960136505,-3.3804047613081645,13.159922861792706,-8.729864192115459,-21.02032088276758
0.288,-13.389484474164949,68.29313636268748,-2.809851304802481,-37.98597143104724,5.461642960542992,5.582465006107281,5.647375321675671,1.184461132773599,7.597255582918001,-15.113722418461737,-29.194362853795983
0.296,-14.800317303182368,41.911865045177,-6.339796412453712,-54.3679499869371,5.90537249298451,3.8567734091458665,4.550023147734221,7.3886705007849205,-1.4802386354847683,-12.672980708462003,-16.653050779733853
0.304,-26.24624903082666,33.06402295371144,-13.277298076408847,-45.24243959605629,6.750082661831024,-5.984795779651692,-6.6906582354562785,6.986030640527672,13.921103587065264,-12.04175242859538,-4.903535573875062
0.312,-16.14376966613464,31.370324726192653,-6.070984582392871,-42.69457530839426,3.461525950974929,-3.5729611707613267,-6.808248195671,10.604910530947608,37.81879879732154,-16.892876990044474,-5.967199818197287
0.32,4.971181649906834,26.205499547431728,5.506919007918755,-57.086558451284674,-3.729968449488577,7.147029376544125,4.765857116060883,15.307015315862555,42.58088052445247,-21.469099685109907,-3.950927427887955
0.328,-0.7918471556885724,32.19462833564022,1.356044550144376,-51.2305150777308,-4.407375391689833,2.7278462785196833,1.8073414096994829,6.711418350979083,33.32816151635132,-24.64405427582085,3.4942962909425814
0.336,-11.913140643522018,41.88129153478604,-4.959817367918291,-29.501337242343684,-1.5968203701768102,-7.687371844908385,-11.223925227584084,-3.409602091380016,33.27483080527686,-21.34458179481823,1.9525712755724018
0.344,-0.6837953786754555,33.18190437904622,1.3980110565877413,-29.142770541485042,-3.794451965441476,-5.381759509462933,-12.99822247851714,1.5953446949155998,43.82997892293406,-5.504937266659942,-7.008465311163492
0.352,6.848651092810515,17.139662125225666,8.272489420321774,-41.7541164388486,-6.795918871209089,0.4137521871413953,-7.4895774784981,9.680069230458408,43.88389952635592,7.257895301378865,-6.344992510008567
0.36,0.4477199804756776,12.286723124695502,8.653470665577569,-37.639683196828884,-6.6630950426235005,-0.1266116630596225,-5.142448355358118,7.901703055674341,29.511061681557994,-4.197044696526331,7.003105566531097
0.368,-2.087893964389709,15.22711076377575,6.803652583684655,-17.617461501151766,-4.48358137998769,-3.0961695017885575,-6.790376539000222,3.4759102188250353,19.817099244801547,-27.081715893446393,15.254238096733992
0.376,-8.720115320446105,17.981669696600694,2.0686270249555467,-0.3826960864324884,0.8100682885096973,-7.320583447299848,-11.81580676615771,2.0942875729709742,21.77142698953684,-34.28763033111154,10.576309082772328
0.384,-17.734994156290156,8.646580600127612,1.3638342886671886,-2.0368262207356644,5.2142497790097835,-8.063233103954548,-12.642306967600035,2.8330013705396087,28.54325218111685,-31.536425925276248,6.238212318275324
0.392,-2.7718590655375457,-20.90098967423363,12.346897865000507,-20.654915736807208,4.359522803467596,1.5960866469159973,-3.0232595164605205,8.3426700483912,35.301805408410814,-35.919695194907185,4.177311055479462
0.4,18.81636727365419,-50.5722605703097,20.8549841934983,-29.807980196933297,4.3727373019578115,11.44818270611971,6.083286471484821,16.49231993673705,31.35876624118413,-35.52082914170187,-3.12217372385181
0.408,10.50801903358446,-59.03646244958056,14.811063536355588,-16.477858173948448,7.21810562461938,7.622420964029305,2.949587273754462,18.62466929298418,15.663173208858591,-19.923482107346192,-2.0225555996356173
0.416,-5.071387737673711,-56.276550448859886,6.656394318745116,-3.6187244301613424,5.505441213942378,-2.352993182817367,-6.308788528938244,14.267589418308384,11.865898389542723,-6.649534252978033,12.34058114076498
0.424,3.3120201580391933,-57.53685512660416,5.584356566885925,-7.8255504588214,1.2192852038193318,-2.960874479152033,-7.206581603143688,10.297271777744173,25.806852514463227,-2.063800659542702,13.93285124151807
0.432,9.555516974336104,-62.8540501727501,3.909173807168393,-13.720547048562668,2.741099497519909,3.0649741200140492,1.5539782214588336,7.65857728095463,32.04329687922413,7.2129988188322764,0.19481201881101076
0.44,-5.301281244734254,-68.92887998480518,-1.436608758702023,-8.808591798203567,8.059965673871652,1.1366428502320707,2.470292537733935,2.461074290405491,20.917655349840516,16.03290826896211,-2.795020195289676
0.448,-11.465007814292653,-72.3340217095602,-6.173128565090948,-3.426017582905932,10.659253434865061,-8.307403042248065,-10.154505540827337,-5.082647363428738,2.691467217915129,13.32618919174806,2.354242302835733
0.456,-0.050908358154297055,-72.11946469142822,-10.07099946846876,-2.0641698244707136,9.867413442677345,-11.158631118508001,-14.792577818466203,-11.574279784176,-14.230022123461925,12.242356937161953,0.5177275261501174
0.464,3.470164845773197,-73.42021206236569,-11.50045753318545,7.732328642610604,7.369277376077199,-6.54993762957409,-5.111962912687426,-14.12764379335621,-17.02389430557422,21.18052892812022,1.3033277269185284
0.472,2.756388780881575,-78.00123591855122,-6.099876486361458,25.262014435391205,3.7546267514694622,-4.246558459936891,-1.0549475499708476,-10.499499355639923,-9.083615598519247,27.182687077448016,9.051842893900806
0.48,11.51745918846602,-83.15551345596941,-0.2884699402991988,33.437114930942954,0.20965620239547886,-3.8729292789878036,-3.349747593748155,-4.979896050189262,-18.145384542105177,31.708512108920694,13.93842972890261
0.488,8.740562813676547,-85.03641439525722,-5.88809213608109,31.320888799100043,-0.3346283143054047,-3.987754836425654,-0.41611869903269766,-7.503497013716017,-40.990451494699265,47.77005385300172,15.84270019205288
0.496,-8.04650546850066,-77.02210742318161,-16.287053021343286,32.282455380416266,3.185405549741958,-8.299779128726971,-1.496652270267158,-14.495532063751059,-48.156396598846335,60.56683077206296,13.120133021037052
