time,C3,C4,Cz,FC1,FC2,FC5,FC6,CP1,CP2,CP5,CP6
-0.2,47.2126207554875,-173.05452789498284,37.466473250736115,-52.65434922247945,-8.93774926910823,18.240464359613853,12.005063442027515,12.28783048912652,90.8027519338988,32.49958044205265,10.24792638138618
-0.192,40.31944707929415,-115.45889501437505,26.989053864627333,-41.84272099916534,-8.065258768132658,10.471875215040502,3.244692535127886,3.207875969183258,63.931567700321104,17.85517865047226,5.820556562897664
-0.184,39.45133079275554,-31.784316798823923,16.792013553178315,-47.693368301182645,-17.434851030781875,11.886517292575437,12.37394049358496,-5.52486188914182,24.420152839143366,-2.0920766633255794,16.928012483100392
-0.176,32.316761749746725,26.202571443556412,9.775068981583642,-39.59293819474588,-28.027457937106075,17.84630739269551,31.36072298044748,-5.663293819884035,3.797773731512789,-16.575255064791307,40.81510629267182
-0.168,29.44948738304005,44.05357813984432,8.385261348485416,-8.064788708456947,-32.760802849404364,11.104989506918901,22.638078008741253,1.8878875884585185,-3.0175094857278815,-13.39562106782594,54.99080426121633
-0.16,29.163842781577117,49.167346445264094,10.726614474253132,3.7026414926649296,-31.867865248879493,6.694173739475731,13.196490626240786,7.397748379528227,-5.328538020502453,-16.033775203701868,54.68282044966723
-0.152,18.07783427458964,56.91639256992988,8.897957163101568,-2.1438988902741754,-25.97064327455808,10.182408216904435,19.958325971261974,7.689304732065642,10.320029282885375,-31.136777862709845,46.72863910925344
-0.144,10.239906252851144,66.76234030781676,2.511221977913892,16.011547648559908,-17.60694984787969,2.455960101427948,7.247939053416996,6.58341992821119,34.598269407269484,-39.645545451830685,30.138890954874615
-0.136,14.21925544776516,71.43719941097628,-3.222671447891438,34.80380144498409,-13.103795517523965,-8.470751637193596,-13.841134754956752,5.503925995411858,46.613148934865556,-21.48323926872639,8.54863209723918
-0.128,12.766569800794315,59.53312352479297,-4.204932199285826,23.888508797721787,-12.021876439513486,-4.634771138888968,-10.1565674151731,7.537063659374023,54.66140673177386,23.722817390611944,-11.760067965758896
-0.12,7.08839628882502,30.563531538643332,1.4545158299294103,17.53723697798861,-9.883407383435943,1.1105539703890783,-4.7249757704435025,13.228876508895603,63.214977834609215,72.72066884639895,-29.12823216768154
-0.112,4.847036290663231,-3.7581212569063225,3.724485612750862,26.655491819478808,-6.369803999976881,-0.5489198518052311,-8.580719552699295,11.288161969853887,51.67149200202352,100.928677572192,-35.58248602522118
-0.104,-3.732349956657971,-30.53874219493636,-4.994357928937752,19.197077051544554,0.03386833269086168,0.6065015295423941,0.44340614391625527,1.260409637815118,19.803782057901817,90.2173821926808,-27.114992732084016
-0.096,-8.985507280572032,-40.50657936421112,-8.292216675809644,-0.8259858584742084,8.30768882991159,2.5853841529893598,6.113526246674387,2.1090422845484307,-0.9641257648652455,41.028944406182504,-17.148071592129615
-0.088,-1.5652883746823194,-34.32790965156573,-0.8500369183006237,-8.908869799564632,12.926919598209217,-1.906826311768969,-8.329568531813814,11.637742723285298,5.850128373394948,-5.458033623320915,-17.16317151395269
-0.08,-9.093891747239837,-22.023905527991168,-6.343784052944347,-4.173482393344599,17.985966135462217,-7.114125139171102,-15.168869853485328,5.902743790232901,20.49075291760311,-18.999144603758587,-24.78546138174283
-0.072,-32.11469592048746,-13.36392922471534,-21.95080335489857,-0.9067766760298266,27.108736894778175,-7.126022839700312,-5.010666952962797,-10.171048571403187,16.93143801085317,-25.171253365180757,-32.259039312777126
-0.064,-32.69638661806933,-12.66627275977513,-18.60918378244713,-12.175877157826589,28.290631303678712,-3.25419825899955,0.826970272405935,-12.696227549760483,-8.15292099860108,-35.20133320799459,-30.33357260994106
-0.056,-19.601710783976344,-14.326017070388264,-6.030241478859086,-17.14262362418317,19.124162075759912,-3.6577907742554716,-5.404011779201063,-5.832784130568471,-40.49782208441987,-22.992642359488823,-16.654414740024293
-0.048,-26.556173682384223,-9.372880577971715,-10.327057402145691,10.454266869063,14.768974674910675,-14.19252103721522,-18.371290929525866,-5.23158559480238,-59.82400449454666,-1.7567646626837594,-1.9313782737372203
-0.04,-38.86030323370935,-1.1389059418702752,-17.429789120398404,27.534614445131066,17.09529802964584,-19.65758373902057,-22.211600498067497,-7.697464163091092,-54.59360311798647,-5.266301132680803,2.196233981059933
-0.032,-35.630211385519154,4.919174046672182,-11.502727537434701,3.4732945127706896,17.19247348647569,-8.931553378752856,-7.451702973124141,-8.171454499421516,-48.55853150548387,-17.99205301050882,-4.419213471745686
-0.024,-28.986667129046243,14.375455732392611,-8.317619963590934,-0.6564862060061762,16.24727274124594,-3.507276938728157,-0.6275029301756295,-9.94981786607599,-69.34107254480449,-17.929464212497038,-9.930788591968879
-0.016,-23.507209006223736,25.687239846556928,-10.670470125463659,25.768402655952094,14.761891599841588,-10.489790214633729,-11.300649285404349,-11.760703554170975,-88.24063886379912,-19.754405103423974,-6.078429808819679
-0.008,-14.076001942207757,28.188226609573448,-2.520962066137068,18.672385755644335,10.167482462991321,-5.0077660071325925,-5.524472676882947,-9.705919596006888,-73.72715534668465,-30.67983753937807,-2.466960387275671
0.0,-9.746091836613811,24.514823662494052,8.54418799798517,9.082896560229736,8.039095400698985,5.3147617896931685,7.294578130070658,-5.116872421663621,-54.861749530634334,-37.409726096763414,-4.341341998506421
0.008,-12.23571153915226,23.52039107590591,6.567382126717739,49.423777023433345,9.446932527775983,-7.883769176999402,-13.77738306345618,-2.514746063032917,-45.086040911280534,-36.81011917633331,-0.6993098893227316
0.016,-11.070360494208675,25.41265022749767,0.5937596161685605,65.71999678163819,8.37485630069509,-23.48423862475446,-38.61056862194583,-5.06890274288057,-18.10015331536374,-33.59510919313079,1.4897877930258594
0.024,-8.767383332713836,29.196634819139167,0.8459199817294539,18.738971319456034,7.116042002945127,-12.75098592899732,-23.01583163626974,-7.840174138640383,7.357074387160178,-27.718771084680156,-11.45360499791136
0.032,-7.750464015466527,30.41643674272907,2.608569074664067,-10.770060414570404,5.054638384883926,1.680355950688396,-0.45423627579201287,-0.12383598602438425,6.860141520655699,-17.253664413588062,-15.866294611571329
0.04,3.8888149432054875,21.195216720716793,6.807956831801307,-6.650230050536816,-5.756862300287655,0.3581048696243317,-4.302732367986713,16.21798703835877,15.822664336971304,-3.2806966266930906,5.1519522037246785
0.048,18.421737813972474,5.961711887865145,13.328816252749899,-23.023032328369425,-15.023747545154224,-1.5285620483052644,-11.240612947860901,24.025904820990565,42.697419403269365,0.9942606268245527,19.475670202008548
0.056,8.167389250616408,-7.649707228205225,11.499159979737879,-47.26378264710267,-5.313401781282669,-0.1841403130142696,-8.319193549005124,15.9801867974715,50.01599239769599,-22.53340753251906,10.993119779625687
0.064,-17.82065714371366,-19.50677908421669,5.892501039649635,-54.42480557945278,13.202039674459146,-2.6579894771555392,-8.087511743441029,5.922574213648373,43.684549124499085,-67.63954848677969,3.1982810055083504
0.072,-23.032293487840306,-20.721259816919797,9.624435539481313,-60.12849293132283,21.243201838068998,-2.85137209333924,-10.526079096393607,5.829481308836888,44.466249846245084,-103.79984414585515,-0.5187280811575131
0.08,-11.647141894030996,-7.885863319054999,12.818122486556856,-56.87155352214193,21.501215075961525,-1.9309761417742775,-13.84764281364252,9.315966090308715,43.76418327986142,-112.15991494022568,-10.456930112956698
0.088,-9.258842700751812,-7.605829554979259,7.198718667272353,-43.51282300159278,22.062304220179147,-5.4277682725183825,-18.490494992212536,9.09868020578016,48.2704021750157,-102.67008624311966,-15.059178461746503
0.096,-7.0288729128676835,-37.418257694215406,5.978835976094499,-53.17502670235079,20.68113772464952,-2.6292862097664953,-12.079567227137595,9.28850781423491,55.92771275191018,-92.90168612071913,-7.797984511139549
0.104,1.4881280873272182,-73.05314247355943,7.166001284146321,-73.47989199462992,17.57753111305221,6.628733250285034,4.561304378125825,9.144527019408466,35.24916149834788,-82.78802841781531,3.346793611016954
0.112,-2.9393302538466206,-87.64247874460679,-0.9339701476692357,-66.19459003186294,16.555233954499815,5.324956173138457,9.241436240040587,2.5910609594334812,1.1893846066577027,-65.88278589020732,14.922371427477643
0.12,-9.347473172522115,-80.2589519768962,-2.9621743377929395,-49.73020998706422,15.694158183453151,-1.0690539622195117,1.0845744017231989,-1.9240821735557332,-5.873004608590132,-56.033978762931646,17.859137264082214
0.128,7.888589758608783,-59.55201196611267,9.916247402196333,-47.08074573062078,12.2658432012168,3.6068253022896095,-0.5754917192356822,5.28491157355959,1.2682082725757473,-65.68745408493871,6.75480859198468
0.136,24.34675172837156,-36.39641765058309,13.413499572221623,-36.86374972928458,8.183090478452957,7.089246723379597,0.7211185873750382,10.237420865810961,7.206731077524531,-72.08017194431224,-0.4484374800290698
0.144,11.007832991991325,-22.047267414097995,0.3528365227923455,-15.342269757107886,5.447924639235743,-3.670266383247487,-8.281212378613258,-1.1535827353451824,25.769083607623738,-52.10529561010578,4.871359748122781
0.152,-6.413714574393549,-17.847663258065076,-6.181142869285167,-7.2370622719783,3.441359608348027,-11.06971644411435,-14.200207240180234,-13.351392345893345,41.91784551378195,-21.859409158036353,6.17086104883029
0.16,-2.126684553511466,-17.69720147201863,-1.158060409248598,-13.721304612682532,1.2766931384534377,-2.0119940629430153,-2.2474978704448514,-7.320524701836869,34.26354899461697,-5.585525728939324,-0.10436369103678422
0.168,7.9050982172076685,-14.723641829518087,0.9204057327626153,-18.373416790687997,-1.0828566988739505,7.159031428825732,10.309218164870606,6.455621149295586,20.83331634477908,-6.4462831741958215,1.0769483318865958
0.176,9.457010379329583,-3.415409507202479,0.1996537918385183,-14.415225182916867,-3.9960696510437357,1.5069851960592797,1.6034444561804748,8.122025597111508,18.619157428978244,-16.906941046419057,11.340866896684327
0.184,8.590181673145924,12.04318751132045,5.393653040318369,-6.12481722896723,-7.015123384019383,-9.12853944805471,-17.59073402950368,-0.06295976937464874,25.100077194474107,-22.54555393301403,15.155092851243335
0.192,6.300454438750382,18.954468058129528,12.687654144346352,-9.488441317821934,-7.350691311443272,-7.729447775240592,-18.71003254186006,-4.621282914163376,38.0101577951522,-14.218010678223846,4.59356660453982
0.2,-0.2184502379834132,11.873227439018988,14.616988062356318,-32.12765676238059,-4.64760301189717,4.4816648080519625,0.9183557852675434,-3.595434461693267,46.79649158095695,-5.39016735213609,-6.2542926216663615
0.208,-2.211245265087841,-4.3012205872727485,14.998083939159823,-56.824642277294814,-3.303377076004309,12.176573969510775,14.111731530136566,-0.41449063702772704,41.543449715276715,-8.233865998951993,-3.125783570731225
0.216,8.84356157543703,-23.311204304691607,17.608860050766754,-75.25318851746269,-3.9115527853684307,11.73741705239006,10.099873466227058,5.2322574582282915,29.6953104773389,-15.775585858574717,3.018951412649967
0.224,21.595922060454722,-38.23400197117643,14.928255615406249,-94.69489719322274,-1.7363946902303202,11.383322817789264,6.410866140456659,10.251841254366804,18.272713697389577,-22.07978787310114,-0.2572699733120131
0.232,18.44723241845637,-40.913276769743405,7.551670570515203,-101.73919153687216,1.6324547475373314,10.23270055696818,6.553036144960609,11.326359861165377,13.558381246182856,-22.246101089944666,-2.735188487122758
0.24,6.414425982894644,-30.454533196069278,8.656217568326243,-87.5172519705412,-0.12784764356377762,4.22549136948067,-1.76961344144582,10.665011509301541,26.55298973984886,-10.726078331300924,0.9107102449311545
0.248,4.0688863162754245,-17.0855837620323,13.718110073902375,-76.55816073459185,-3.4896944848446196,-1.5977254874409754,-12.995600147635503,6.063411309021038,44.76414779632065,-3.170413499284331,-0.5567916382308606
0.256,6.766464090846115,-11.341690907776536,8.140528580608116,-72.40785120064787,-0.7695682814655199,-4.651732603981855,-16.39170949856762,-3.1530900747388566,39.901810263732266,-12.580117829981583,-6.300072926573312
0.264,4.864766052420259,-13.895873290644545,2.0767514654850734,-53.76502333628026,2.650246022727212,-6.013754779565979,-15.142246790869779,-4.454393088326448,16.71353444280143,-16.65964303379262,-4.383949502603341
0.272,7.908803086445814,-19.31808500382125,8.95847865962544,-39.57638302416148,-2.0311015277950744,-2.318020796845189,-10.553413771907975,3.84879028487299,8.584673773202303,-2.716857923859144,3.1067302795668055
0.28,17.305391460570444,-23.045986664151343,17.29134901366568,-54.061002997353235,-9.004363742296883,4.991531696075437,-1.6488352423988206,5.294897684129056,24.91383048231269,4.812974470678223,5.8662166080434055
0.288,22.63214998050625,-21.88560467968801,17.407183320008066,-66.95198889454124,-10.383929283135176,8.84485734347478,4.473543729939665,2.443971893931992,36.53675630513915,-4.140115676158164,5.240316097546248
0.296,25.613789014464157,-13.30302940259634,12.872247079124733,-53.860665054962624,-9.621916181966263,5.653885606081659,-0.1767610159537666,9.552573250957892,23.10365079889126,-11.441972928470713,8.448854197197207
0.304,20.91005248769674,0.4523028068381536,4.376133789700081,-38.74260255218464,-8.024395462534349,-4.479257874128839,-14.493011353994406,13.662284674274996,8.657059395036825,-10.515403104250476,11.648688430853783
0.312,0.9998962187157597,7.154016671965479,-1.3792757601285888,-41.947021481074245,-3.64557423866221,-10.482166948320533,-19.716197659659173,3.835850840128783,16.281102304192856,-8.78537305707949,9.535152493129006
0.32,-4.705702151887309,-3.7295206264677887,3.961296356542953,-56.563010038368425,-3.1362725463207792,-0.6647483979191903,-2.985295901537251,0.6583939230602452,23.143645740202363,-10.940289692558022,9.869029214228295
0.328,20.696220470362615,-20.45804449312691,10.515215439761343,-61.66704750581672,-7.277720579575965,8.92176038661293,7.501998561394366,10.584878588628431,9.476785980818747,-17.34213220764549,12.804239742200284
0.336,33.38140778216054,-24.41095506102959,10.123863184527384,-40.411437057540994,-5.291502463994979,2.505194585566026,-6.718059360907061,14.228861864542573,-2.729582086719034,-17.686462195551158,6.222875954521176
0.344,14.334506301802854,-21.653664011820496,8.362875635692808,-15.028571979558421,0.011269003278974964,-0.7275060696680228,-9.283031682573403,12.116508835135262,1.840535561034432,-2.6382656179798416,-1.5843162508876447
0.352,8.0891202095627,-25.038797563995505,4.557369863797542,-18.03550999385355,-2.1792330749074913,8.405138471429627,9.96906319538638,16.19052580424748,9.152705924662374,12.331101616683794,2.062841508365249
0.36,25.370770577804294,-27.209201220611764,2.4319830889825313,-27.660747651097548,-5.495744039332306,10.867459325651645,12.115652658292197,20.06470419028615,9.577305953965489,8.304631112128897,2.555779901913359
0.368,28.588681200218524,-22.762729340455675,13.24534144043816,-15.010532979205733,-3.987061157563639,8.20938668303432,2.431297833745827,18.99944351003345,4.424714878248898,-4.972050239911988,-1.5348314271561065
0.376,15.318610696160402,-17.12270312196249,21.415714755722924,-3.0112682233787313,-5.2401415982508555,9.622722919519543,6.538355311068856,14.337979112871139,-2.1054942799486316,-9.220328468998186,8.143321979533548
0.384,8.805398294259245,-4.199839962514352,7.596896881324081,-5.5793014924913,-6.628906560088189,1.678789126235262,1.0894802668849974,0.66563987639484,-0.6384810654842802,-6.294730952261919,13.593644970090944
0.392,6.873238687184738,16.499793162668507,-5.14079529680016,-2.187642406488395,-1.9740527495104983,-8.7492859649768,-13.8806328694891,-11.179121478947222,9.666508510619087,-7.554725327041494,-2.4988431833227622
0.4,3.3955642578556757,23.502094310409078,2.3622533341291594,2.1438171453362083,-1.5183104684315953,0.2214623391393693,-1.2886646183826456,-3.931697491593352,18.957016551991135,-13.792999305640143,-5.726857533885701
0.408,2.2607032427270726,12.948115720690948,6.446305925485618,-7.509331802840064,-6.892314770966951,10.123292282116324,17.03765959091331,4.768622629563022,22.624782053529128,-16.05344427034301,12.12766860459442
0.416,-0.9222221358577265,6.803135441366972,-1.5347159745641397,-9.108118780369603,-4.460078659861004,1.8997829836915692,6.3848087456073515,-2.472049688759915,16.70013350044393,-11.620017999446905,11.992761801015419
0.424,-5.525704142176404,9.239947302886707,-0.27854017959058963,12.22879807480882,0.8818650615996029,-2.6945897336677214,-2.559160540094987,-4.766401214253974,2.001065902986791,-9.23382809125648,2.080207292933801
0.432,-3.524573735487722,9.878259212116717,5.348891722565168,32.65473469918477,-3.259925608963902,1.8962501039479238,5.21747253062927,3.9946029089085275,-1.9101355674642457,-12.08521959417717,14.23713109997245
0.44,-2.252099953304683,13.194604175370593,-1.0837672551449502,37.8184469166012,-6.800370282365691,-2.4568503731518354,1.8581569810566232,1.9634927873034704,12.387528803550705,-13.187916087119087,23.51607580276227
0.448,-6.045725054691906,21.803371542686016,-4.923944750273045,39.03929964632912,-2.2829860848724364,-5.691816426901855,-3.700352488185122,-4.048650207036701,22.36900720557458,-12.598632906019812,9.104228165104223
0.456,-4.88165770070222,25.027153223080074,0.7640662057978552,38.43642292878979,0.012257142530267547,2.240638787403227,5.852304223837108,0.7175766734426812,18.91016567681851,-13.313836750888331,-1.4701826485473746
0.464,-6.81519371585321,19.85743564818675,-4.042745378699054,30.461570618574978,1.3500494985017633,2.511784543952772,8.262627977423161,-1.6149833075877917,13.569147889578632,-8.470711831437407,-2.5892329819936517
0.472,-18.613662724357088,9.415992872547259,-13.585841581583148,24.70066130459869,8.224648077857976,-4.387563284912847,0.6498551217312653,-11.981354149115525,3.837296993678649,2.405021314130109,-10.68554031902559
0.48,-15.806974984724498,-5.00472851353527,-6.108182674652757,32.052693778715096,9.646421043855257,-1.495263559054048,1.6787628062145932,-6.712134372651215,-10.692634276057289,9.530670877918345,-13.69694008716598
0.488,-1.516841848676011,-12.587288496844133,0.9589533800508571,47.8365701148145,3.9140625501315522,-1.689925425390266,-2.1080477643084077,-0.3550540865613638,-13.971299222710602,14.163454729587793,-6.193145136331997
0.496,-13.284108409129763,-7.707176766935135,-12.043440892550299,63.08960396894149,7.099252558529233,-14.525910526454098,-16.233447843479034,-15.20915749615868,-9.969086372969683,19.633317494331195,-6.612409700626267
