time,C3,C4,Cz,FC1,FC2,FC5,FC6,CP1,CP2,CP5,CP6
-0.2,53.69856359657202,-139.42911638587333,33.86255191476216,-88.51070021712462,-11.137791855480785,17.30204006333895,7.245299068787291,38.40200308543947,118.65505212140322,-19.468583616962157,24.112216504826666
-0.192,52.615616713154246,-112.72793360465704,28.74295426554777,-68.3601958162961,-13.936278089733193,17.698798213299316,10.713998475438741,31.822602595353338,152.07652650060453,-11.916244867809937,14.950822607039328
-0.184,48.7991817612304,-108.84457056146171,27.098669010649008,-18.85418933553385,-10.97541577819768,11.112113723883224,1.8111356654672304,24.190601947223847,167.67318073682006,-6.9690234726229985,6.557503996540196
-0.176,56.900336381411705,-136.29414079050454,36.60526619551723,12.108253887542476,-9.865549659925916,10.874421592839658,-1.6633762367012352,36.682615535190195,137.65444721289333,-19.044687106899996,20.512484042145225
-0.168,55.206080365602254,-157.67977541254425,35.146663766045016,22.06704427127093,-10.95678831852999,10.265052555279302,0.07550941221077992,42.30117393030046,115.32943579462648,-8.274342334413115,34.45828190779722
-0.16,31.51310801094325,-155.16225296211562,18.23841730573482,46.29979720458134,-3.015430232477264,-5.803115279451297,-18.03948532025986,20.935913353288804,137.73368776451568,18.693805313979198,18.230489585080907
-0.152,26.352532850688508,-156.57423243977087,10.832170456256321,55.31184883565677,6.109931677799131,-15.666051570964257,-33.7350908333158,6.2495172550191835,146.1366934485272,19.080891308222544,-2.5736773068598646
-0.144,48.74811405051127,-163.15595005405808,15.16554560602341,14.885709201228305,-1.0225558419342125,-3.7949478768541196,-19.16814443648395,18.50563818644827,104.2965740830825,25.02280093696876,4.3931660948382785
-0.136,55.850524242287214,-151.6723033160718,12.567266348417665,-27.389052678424445,-13.959772322896953,5.049256537989595,-3.657038445788837,27.42868759818424,60.469319386295396,66.99473165525687,17.413936269586603
-0.128,45.5058111063194,-132.42857377414552,7.548800842430868,-30.2888422254716,-13.216520976518856,1.6683013818689554,-6.3300620865302415,17.962755720133686,33.611777714053474,83.38341267694967,12.107669189730839
-0.12,39.8037088602648,-117.81971800856923,11.093206285049408,-20.08915087652803,-3.907685077883299,2.652698340245717,-5.560033273471082,9.432485729692035,-6.799992430300124,48.28801087262087,4.011057862536681
-0.112,23.639826970546526,-98.74337430615742,12.966832306901766,-15.58696736752961,4.142993572195667,3.885103674843996,-1.6766584229238037,3.4079542868666186,-50.95618887791773,20.764679356400073,2.907163323300984
-0.104,-1.0629843804716919,-78.47379648380401,5.9302671009665895,-5.5592376402574315,13.004375088947,-3.686720719987447,-8.221282262048097,-13.578916004705292,-75.42438848931864,12.690955435894926,-3.9845514278296026
-0.096,-7.04990772143847,-45.415937847608944,-3.909091371370347,4.739896587592723,19.09518107040228,-9.097286478992798,-12.653284102130842,-33.68983197680582,-96.5902833261409,-8.012429939025283,-15.976908724697505
-0.088,-12.078748976704397,31.129520669452777,-14.802787981181687,3.4702956990159364,15.458931394098009,-9.74755918123892,-8.482429735486637,-43.66689208960743,-117.17725090824183,-25.285255465931808,-18.849679558124215
-0.08,-35.56628136844133,119.20236925337316,-23.225203346726218,-3.0822697127977063,5.880045342813681,-11.164992842852318,-2.828232269456895,-45.027895696090006,-120.526418982059,-24.831377144900387,-6.658051827010902
-0.072,-45.803714150525416,155.3672091126927,-21.820552329759572,-8.724166249379445,-2.8950485505665364,-5.435965138946829,11.14755532597983,-39.40903008320269,-124.86312674009862,-33.79743880138213,14.929320320580945
-0.064,-37.09971643333965,155.20964204467677,-17.94623967656394,-14.189630820318918,-5.886805591261516,4.616596650730895,27.00299160773591,-28.37583025450117,-141.3333345630093,-52.71284904892005,27.151072821499817
-0.056,-42.61210258595973,167.6135964849703,-20.121770397349245,-12.010248290759609,-0.6793525151170426,2.8997033332288833,22.229868215810615,-20.78992793834297,-138.5897602319804,-56.12662806547396,16.02387963887248
-0.048,-52.48005670010336,185.57093216195236,-18.707361308557964,4.528909074342067,3.652872287824833,-1.1961996291957755,12.526308533528423,-17.049684605798607,-111.78882025209391,-46.99247412345665,-2.2786648770700695
-0.04,-44.75143202835179,188.32214839552296,-13.537179708166185,21.772993952150234,0.40635925510600973,6.387827243019008,22.301876792861414,-11.54722745364722,-85.86646691756597,-35.27192026012881,-10.58337958207087
-0.032,-44.402168740629826,180.06454791294868,-21.45356841549264,24.37667691298239,1.1842158824539752,5.985051063182314,23.13313260628508,-11.045935477641256,-54.123073414548266,-13.812249296899084,-21.473109320707806
-0.024,-58.252355971503285,163.3828484508791,-34.31229845428762,24.603834639042944,9.605873724738453,-11.226937640010203,-3.795447945014516,-15.570009086903546,-16.09346206106474,12.33600188821709,-39.18769676380919
-0.016,-53.485338642618615,142.93416263384472,-28.033266595472078,33.994981764066715,10.055334803799667,-16.392958609157162,-17.37591519545239,-8.152411776177626,-6.02553964941963,25.370589229757435,-42.084542691108254
-0.008,-41.77842582059844,131.6391624330452,-15.28202753234419,31.72338141022877,3.7964693515647,-4.146042933165998,-1.3525494039416974,6.46556966945904,-17.81640696028345,21.980203464503578,-29.198131375222715
0.0,-62.21017138884562,133.98553639398324,-22.647264287030318,12.761027790719753,9.062411358779832,-3.0381864729327113,6.351354264900583,4.116073550824441,-9.662180958779324,7.909421406055356,-24.910670709865197
0.008,-91.85118506935443,150.44700831905064,-38.46036378891331,11.499923522930983,21.724226242593915,-13.998265320633863,-3.853026354925946,-9.77485903091181,12.739970318903596,-11.910252162404431,-35.60852299648855
0.016,-90.13920741902614,172.3786812738209,-42.00930649237116,29.513997712082677,25.150267522875463,-15.957388732045512,-7.135087109684565,-14.527385464815143,24.386269264099603,-26.512780202621933,-48.2271762770308
0.024,-77.55649753804522,174.8955418875762,-39.27964421333468,28.28153373430493,22.637944690819168,-9.897555254619355,0.40876571360727143,-14.2807739008271,35.32325217860223,-30.76610435726595,-53.27566076168336
0.032,-78.70690747398105,153.15523208407004,-35.487742161062585,12.393259445601581,22.46607682005736,-3.727803020566049,10.86757058091453,-14.47214657147521,44.05028151139197,-33.840136757802256,-47.70214281218071
0.04,-73.14463068677343,131.56296362250373,-27.379095870595787,14.921150220123653,20.28256275358054,2.830941493227647,19.959442177261945,-6.388370358547733,28.747012532723083,-35.83704738338883,-36.21100687853116
0.048,-57.935497242147036,125.38097462739614,-23.5947016002918,26.489932725704477,14.588003181659344,3.0564586394521207,17.400275954333136,4.493220767638258,7.775738482013251,-27.081242879399664,-26.98645331212077
0.056,-59.08895579321478,136.8951308451353,-26.492783821592337,28.389060606558715,9.564610480086596,-3.2176632230899207,8.416510077286539,5.871516388679646,14.545335076814919,-15.353504700299117,-19.911860948820625
0.064,-67.99234441905966,163.74412980103884,-23.05861456503695,31.52452415046811,4.018738926996052,-1.5921119330871627,12.978783166228297,2.243820728162893,35.46358360687097,-13.764856628822095,-15.161808800719655
0.072,-60.817111269029134,189.2118403273939,-15.617025627813547,40.428631368779925,-1.7606437630322336,6.316960729039507,23.795355185714627,-0.16707984530083805,44.411361492200044,-14.744125364158263,-19.619957002804295
0.08,-52.66898088874748,201.93181378552472,-16.951183799105955,50.130456231690104,-2.746421703950734,6.080450474106555,21.77406186033306,-1.4473742901742053,46.31971357785606,-9.51163495953113,-29.239929527628128
0.088,-58.67553216985622,206.12129828532258,-21.451024417046504,61.82347435217986,-0.6434378809996948,2.622735430412907,17.925802424573554,0.6367856616202875,47.690362736926986,-6.1578966969878755,-30.497190280766386
0.096,-56.557043608162964,200.88560358635888,-19.80372298496525,64.09382128624844,-2.034021534138313,5.377170753858604,22.815936980266144,3.0371912619285455,44.552093154360165,-8.893769116678996,-24.8459849966829
0.104,-35.85856956205984,195.11247500565347,-16.24894654471272,55.57564350588234,-7.180581660590907,5.927159397794063,19.601605356136737,2.2747866004765216,47.117457656317036,-10.345739852178678,-24.496794615247914
0.112,-23.968942473038776,203.34058920697714,-14.815477958280358,64.07200291736393,-10.273187412099045,0.9908840216080448,7.8001093352202,4.863556929964437,65.59166499183534,-9.85449567890018,-28.570549745364296
0.12,-34.34406079193003,196.1463502989735,-16.356214892109456,88.61079707062859,-6.6415755361535505,0.46278242332095826,9.324630986641226,9.39398038914913,89.47255103662658,-10.638954784570146,-28.888894086711108
0.128,-41.0746964156366,143.2212470989721,-21.61731893522377,96.71507460600532,1.080505574987704,2.233137498737744,16.216986002911078,8.112868228129543,112.52049145775165,-5.532091533535616,-29.80779670528344
0.136,-28.705791763933536,85.574078466755,-25.3246227053696,88.40437903425696,5.623432571851806,-3.001642809879193,4.852322330828303,9.772758156023254,143.46888020003033,7.601853465561743,-37.329749995844125
0.144,-19.764064079107143,61.85989928635304,-26.59131210040262,75.40673710782532,5.845406273813579,-10.27683978807401,-11.572282928935318,18.384876855806276,175.90458861479925,18.675477720224833,-41.737591308089705
0.152,-24.411200530255513,43.809013400108746,-31.82672705853442,47.868011746008904,4.410301723606,-10.807325350414292,-9.860690348738249,17.132514975587636,185.33521441050004,35.98800438374128,-37.02899147005197
0.16,-21.043741792448532,17.79840590977728,-33.730367034077815,17.412973061316002,-0.44413932865745853,-5.473871119989772,1.250084544735555,5.964944282198857,164.8608158620265,73.63641710310593,-35.090213922192234
0.168,-15.162772783789151,11.989575311273667,-23.2501704845733,10.7112091645946,-4.640900994631381,-1.6593103824392677,3.3965976029843463,1.4463590911022661,134.85039665275073,97.80147384735463,-37.85838232407772
0.176,-34.706315721546126,23.410207200493797,-15.768993273629615,21.079216503492997,2.9336241485198675,-8.71769117474412,-8.705641318967468,-2.7377792009451007,113.39990844325916,67.7127979539457,-34.06406250639427
0.184,-57.340923241772884,26.629326915919762,-20.52211364983725,30.167764481178317,17.03590863503489,-20.358906504909072,-23.45282031418201,-13.399187103635994,100.28156654435104,16.647668727960703,-30.89580937088201
0.192,-46.25465420915745,22.92431026957178,-18.209464354728098,31.5380071639851,19.778063329546725,-15.35319244389748,-17.812469748435177,-13.382011444811269,93.93314415871484,-2.890669306537034,-36.83590962438278
0.2,-27.889661633247034,19.023239641148788,-6.651977125414923,18.87233344362117,12.55804232921104,-1.5935397427607008,-0.6806947717839558,-5.618039163261521,99.24849795576932,-3.3913909042735932,-35.166476690427764
0.208,-34.39274991717642,11.041508568363879,-10.177042842393117,0.7325010509284857,11.279604649874308,-8.078599625848168,-7.770095257356995,-13.54464231873685,108.1131533356074,-9.727136869997528,-22.75619631701318
0.216,-43.63933035783771,-0.18266012811000434,-24.307738382549985,-5.873956026451633,15.863046593180629,-20.72606723746463,-22.302281362967257,-26.016754979697698,99.06252035592969,-6.954864068823631,-19.68623483338058
0.224,-38.570677529725,-12.438506582635444,-21.489028407569677,-11.501322388924045,14.893936662040767,-8.424040946358254,-2.8442530404398894,-19.506806802375795,70.50391587421755,7.446185382928236,-20.590872961751607
0.232,-30.49148042740774,-16.264281692055544,-8.132588765957273,-28.11172050634328,8.406958677841049,8.038232778772725,20.343963228116284,-7.251054106360514,46.769607225603444,8.660797510410113,-10.420173131073131
0.24,-20.371422381709557,6.4113786663732855,-7.195772462752293,-32.626904811112595,3.4672865665344452,1.0146852827906243,6.108305360498196,-4.165957950341624,41.069598139775934,-4.967005825743252,-3.2385072691856056
0.248,-13.303034570812938,45.55018072322025,-9.99841966044084,-10.462225642682084,0.4168434026588456,-8.74531470159239,-11.728478675366786,-0.40628926118404285,44.584749094663515,-14.691463489000856,-4.878647767095656
0.256,-19.960802360647037,66.38799028636109,-1.385109814390892,8.746462371310514,-3.0331212431673493,-4.064243344098079,-4.767508173781993,3.293459742837578,54.85029093135594,-14.708639189442252,-2.593382284088923
0.264,-19.418850549988267,62.216912639264386,9.65570827037526,0.6247414634861642,-6.704594840838372,1.5449383123774483,1.072980814248268,0.912386176205175,74.45232441341807,-5.915315820371947,-5.049187256463257
0.272,2.0908426608260102,53.291584665624235,15.681227021676952,-12.96054883057995,-11.349948184817373,4.412978297496914,-1.5938319833872234,5.605637281915358,87.16446783179994,8.324209220118847,-14.792568592621343
0.28,11.728002138469781,48.46234559720192,17.051270480912,-7.077836999267339,-15.166463347462866,6.229988847162716,-0.17095512975690028,16.398201794592964,78.66989546661411,13.751798922590226,-7.888454890833932
0.288,-2.1704355732891183,43.853335294196626,6.714015790209884,5.702342239042922,-12.769923587179166,-0.30094442338388927,-2.700176023215314,13.555121535221051,63.04578799064445,7.1373970568872025,8.055385402082386
0.296,-3.2869462123667588,32.25359013722744,-6.242137066122933,8.843053282616797,-7.595639677285921,-4.633187701005008,-5.189742962696886,6.709195891336797,57.83630596757027,8.6463762765502,3.4557368732358995
0.304,13.043043662293627,9.843432286435394,0.6272599086133567,7.687283917730288,-7.752608626585075,4.6112382934471485,3.51239482155068,14.86219950728462,64.36057214379889,25.483653186395724,-10.50386764638286
0.312,11.636270114870868,-9.479029046563022,15.148273432688221,6.500300636661662,-6.927368988092968,8.00981009315429,2.6812807379823433,20.530067741217962,74.47474973863203,35.72154161458033,-15.753128375282751
0.32,-2.8192493923741746,-14.514479349640423,13.131507919089728,6.626240961725363,2.1045609879818317,-1.6030540685578678,-12.592586347865213,12.653122045644157,66.89909867214404,26.848519289247946,-22.575540855323823
0.328,3.866642437099307,-20.19336414511442,8.377556911103506,12.702851132965964,6.986663728863588,-1.942071034384471,-12.994405088687305,13.255906154932603,33.637159352692166,15.368452442672066,-25.52568903745233
0.336,19.303312707092033,-30.626095696222126,11.548665999695222,15.981324890428914,1.0029148331432356,3.3929149011410886,-5.217094014976875,20.75846268310474,11.604077795591454,16.62934170062513,-12.838389245161451
0.344,11.685215933190477,-26.575748931534033,5.390061360604666,12.855973601161905,-1.738497182866166,-4.187045944781546,-13.160819990710767,13.566242748274325,22.81615652383081,23.857634160580037,-4.384398430646238
0.352,-0.6867983642413683,-15.34262044098621,-3.007009698231369,22.355559560230247,1.2810880107411462,-8.964412225064988,-15.83416268750159,4.577386717350908,30.995623407959883,24.803883665666707,-7.653554991011158
0.36,8.756441353485798,-18.57475218869994,4.503522720049332,41.97682216428105,-1.4134298181568081,-0.4262840740956843,-3.312820680706659,8.914935593850137,18.65775292465205,18.791896091026274,-3.2416548568059835
0.368,18.942754039407664,-19.883353510353782,10.76622273092012,43.74154963390311,-4.634599879389799,1.1947664134252063,-3.437000359731204,10.617192561427421,12.93750084564904,10.242236160820129,1.8674198165167715
0.376,11.018430583908883,-1.4938502964910008,5.383302093710159,29.45580723917299,-0.686016327832189,-1.9572424090139828,-7.980751886395775,8.049273583275397,15.934803423787649,1.8765876861189292,-6.191993554469501
0.384,2.354838564342102,14.122511255087085,5.197979666829761,20.576330059986027,-0.13558016113717652,5.343877493977025,5.32010813326265,12.351338235956906,14.460073753833695,-1.2413648172941896,-7.363180840174397
0.392,3.5902723198267474,10.70349944320442,7.576858680679727,16.422727080427205,-5.562049070654026,7.8524917334033235,11.096170061509397,11.239895249505398,16.236427450012762,1.6025287335884895,4.612981935802749
0.4,7.690778444565782,1.127040804441475,3.2602875140031222,9.513380354568158,-5.171144982097825,0.6764891911777986,0.08583591371876381,2.979560994729501,13.813995302375055,2.4705312188883575,5.294998621831105
0.408,7.175735777088086,-4.465203127365838,1.72966326968154,2.3690389879849008,-0.40372934598564997,2.518397135139688,1.9379338396306205,4.077620831131691,0.2997643866359831,2.5562148500329944,-3.4397985210821265
0.416,-4.401509061752646,-2.5620145923496134,-0.8307574177264847,0.8748743103481772,0.8291685172732233,3.0390134799922275,5.582517191652952,4.585986216949446,3.431450958696114,8.444521873179283,-1.9736055074369518
0.424,-12.951553610202817,2.7633053205380107,-9.796069807727308,10.168835763720127,2.1462245024070876,-10.05870369281197,-11.699729608593257,-3.8785101985721964,20.290940718798485,8.757276799246824,0.46554657273909805
0.432,-1.1059707876411218,-4.757799344272158,-7.91711708731709,17.994732174646945,5.457746469003062,-10.77027023853317,-16.65509540860306,-2.496646801407004,12.741866706384462,-3.413230263297924,-6.939609406525712
0.44,3.157148498057957,-17.795280512180902,-0.11699836093928742,5.256668360868386,7.03166915480164,6.021007431835656,8.699683615256665,2.1624442071954078,-6.162071413205908,-10.021313081352766,-9.98059081498974
0.448,-19.15637057408681,-9.583989607800003,-8.329084266239885,-12.790930127885414,7.801063142639336,9.983419159520432,24.26086412343755,-8.365152450815291,-6.237243190453623,-8.217834732094415,-2.4104835384768766
0.456,-24.85151056933334,7.472359281721079,-16.049993712490924,-11.630090215913839,7.134038602335014,0.9906959300777161,13.21169363840433,-12.653094157011086,-4.791046830689651,-15.685274954051653,4.195975819835451
0.464,-0.3415153903473929,4.199180027072552,-5.499814602408332,-4.57407895406611,3.068822341082051,0.03651739585744477,2.709006156277293,-0.2626648976411369,-8.57409547859964,-27.024765611609677,5.551670303037242
0.472,6.8114655879141965,-5.507721690347247,1.8056529257224732,-8.916039657943388,1.0166556790976873,3.915396465617911,5.976769117825273,1.4154648854490495,-3.199793426707725,-30.297238174863224,7.11736150408055
0.48,-8.011100662585772,-1.1107548909422378,-3.524805902740006,-17.064833963591468,2.8801882606864466,4.328180119072529,12.516906319044264,-7.525547547899547,-5.662772603745257,-34.306281971519816,11.826828129919642
0.488,-9.299036381221041,4.6955134793876185,-6.026534261906557,-24.96984812007422,3.001995397590088,3.06045137316192,11.14590582471627,-5.582326333954868,-20.826742879457434,-38.04818250609534,15.578231835830572
0.496,-2.437556786314981,4.877620663271911,-4.941773563297339,-33.1104628046118,1.8901995650745407,1.4408561365624961,5.0217784505349945,0.7917263984089848,-20.649138653620017,-33.4185092420509,12.796226712658324
