time,C3,C4,Cz,FC1,FC2,FC5,FC6,CP1,CP2,CP5,CP6
-0.2,-12.711380344842791,-62.808067879838575,16.981627251436883,102.88217941003298,-20.66084006979829,47.23676420893859,86.92160594784207,18.278770576800596,149.4666073489121,129.43187137105528,-0.12470506962918403
-0.192,-4.806570221289498,-214.60914991939117,21.334730186745205,175.8748517987364,12.484861958335895,25.04263332521043,44.58565484440967,5.763235044911387,48.361381557304156,130.99226968437654,-18.455501361311327
-0.184,-10.478988373268885,-178.38362727810838,6.112810408427057,198.96208093558457,30.669860557784837,13.836766738738948,27.41896913622038,-17.699035181045115,-37.32223077285163,120.54868225050684,-56.414681538302744
-0.176,-1.8072539239250112,-76.0262422833743,-5.247998092093431,182.32915502047996,16.644989790631076,21.720801244480985,45.338493354800804,-20.00293985931545,-19.102340732439984,92.70952006899569,-52.167367107095785
-0.168,2.7579618272676516,-60.94996896579278,-11.767389951166304,163.1869985807035,5.41329811826628,12.474351118698966,33.72704233177668,-11.148110056058131,24.356475278638374,70.98809859995103,-21.04020421444117
-0.16,-8.82679282143625,-124.30764892161234,-11.552328582517895,132.78488978298498,14.185989371328208,7.448468955903414,23.983404485700085,-3.9971119437253955,57.94158175677436,75.51030396687597,-19.715342005537803
-0.152,-25.567867880260923,-200.42304383045834,-5.550318350211155,82.5042067286734,28.681029137982026,24.813386208963514,49.46088291795432,2.1529707989326354,81.83561771312088,92.6017870476433,-39.49851994618785
-0.144,-21.6345825600763,-231.41716106100122,-3.077053328900243,43.68037069116486,30.71411353003271,29.312912048286897,54.346711758311876,7.116838912233817,53.6226217250279,93.52838222405268,-35.107782013290375
-0.136,25.96058681647664,-199.66054373064247,6.822189079296917,7.931219284992036,12.268488556049808,39.49522585345075,63.211188118971,16.151939195554498,-14.115490472902042,71.122409647401,-13.601108809637024
-0.128,59.54951849687329,-152.34138555423513,18.856196754721132,-70.1471689048503,-5.232097082286787,71.46181171624322,109.21388915396783,16.37374877564111,-33.13463883333022,56.22916008188071,-13.757429455157567
-0.12,7.8888075323125015,-105.07489661752797,0.5220585145794596,-129.68137741178572,2.5137303023002766,54.2798807881351,89.65514849711283,-13.13866958006599,24.491784788900127,74.71660183395852,-35.90886742301049
-0.112,-43.14431355549973,-42.848393484758674,-25.842118559119935,-90.00042484376702,11.758048533985582,4.504717875188503,18.80398214750805,-38.31859503925509,79.27698824996118,87.99164709478848,-46.80095178863982
-0.104,3.8602002217055875,-17.287623508661365,-15.670556671083304,-64.52114129665333,-1.682703302373159,25.60619836607929,48.175747740585265,-21.28580327040252,53.84494147579136,49.61431592683918,-32.96102582246577
-0.096,39.92325435906011,-34.10612228374032,3.569538631896707,-131.79166689255294,-7.873592825494322,64.10689184563125,103.01895224918813,1.1544101619719096,-21.743535285252097,-3.4323577731630754,-13.054194924893654
-0.088,-18.241801478900868,7.948469942122311,2.2749380818605482,-116.10258447090737,5.854139772786757,19.918125368685867,31.943304587338865,-0.16093808116976233,-56.649866892463265,-21.29953021928133,-1.2672342642328123
-0.08,-38.92804456485355,95.0553733008747,4.753130507621174,-14.089121019855995,0.9337405525770681,-21.934743661670524,-37.44640092538494,3.266741298599142,-33.19635440522737,-28.16672635750139,9.63092949148101
-0.072,22.393322515993304,104.00489795367129,11.452713293718771,-90.52590128481702,-23.987797209067608,10.888314400169264,10.229287804878012,12.884734523222923,-9.870172153815528,-43.994814117850815,23.662669890156696
-0.064,30.69548875274987,68.09391824161219,7.4531046025904795,-254.91034403122572,-28.39995507820485,30.169803481671355,40.484240996895934,9.772986946716461,-11.73927516739665,-46.38350776289443,30.7212029103879
-0.056,-8.771143935916202,92.04691582846984,10.231311528208247,-198.70690731769542,-16.187741086817464,9.585104884478927,7.959138867831042,10.659676721938832,-22.730852484772104,-50.56173052855906,26.299292974934446
-0.048,1.4149167396502143,134.0733105712753,9.810606651342368,-74.4062835642002,-12.516844455526044,1.8109537656854056,-3.639281648731996,12.632658236082905,-38.75876279289565,-82.60643904495969,20.80616572298234
-0.04,-3.3624393322791213,152.10699603287196,-18.85743800464424,-91.2254421627472,-4.836471244665068,-31.51717674913031,-50.611596621450076,-9.4711764847583,-49.06216660535373,-113.97913751283751,24.358544973482633
-0.032,-44.57251523900888,189.62173198102568,-31.977087434826405,-38.40060718071768,5.743416779797377,-87.74726634394624,-137.87678646011645,-21.97897277347177,-41.750450138173605,-131.76176252474835,35.15997602762214
-0.024,2.7389780760780464,213.1816246870991,6.727983629615061,106.07073334687433,-10.995546560233679,-70.50791811273066,-123.22596599717637,12.898919196720431,-38.70384467789354,-158.32592620977266,51.096571438594
-0.016,71.1661123363884,192.01928296643146,33.119368044958975,98.72623220357734,-32.84555903461469,-43.41767198405228,-93.78343344737142,41.850576165973074,-45.58519156040694,-170.74351369675435,69.95177974323396
-0.008,8.71392033879364,206.9725963773409,-0.3572894580546476,37.30004789455578,-16.052871622080094,-115.1191489376007,-203.24219416004388,11.781091916860776,-42.8666302613587,-149.4356812942524,69.30994227115129
0.0,-34.209373781791335,245.11875743634775,-30.12272873440139,32.27600470341535,3.4063126093041527,-143.4691864055099,-238.65198568101775,-25.537946202892947,-56.8661966578973,-145.29392275575006,38.877840299807076
0.008,51.90370239481164,219.97891680004645,-13.70391427731875,-87.78034728656479,-14.083918520094196,-45.882141420061046,-86.60866358311888,-17.572406069756358,-95.9963907206456,-173.20381647296924,20.619246494584328
0.016,39.956364148783415,205.23490242732328,-8.789193434687924,-204.04535725072594,-19.998136574129045,-32.50818228531713,-65.15175032412523,-8.967726276680603,-90.72233418551878,-177.49408153098486,41.603922933375095
0.024,-80.08746737001844,255.4053270775211,-32.1809212798881,-112.41068219045341,2.2708693400560107,-136.10886685441673,-219.81997418937684,-28.81274398955311,-50.75194297555045,-162.9551287423183,65.60328684733524
0.032,-30.571066772436676,265.5080091760115,-22.73388273366784,-63.34985136266992,-7.653997465434857,-134.80023315625465,-225.56509738966088,-26.947566258062867,-75.8460889057338,-180.4666304032906,67.17231933960811
0.04,94.3920230790214,256.05967495822915,7.572589941683483,-154.10415409162192,-36.92942170720919,-65.84874473211892,-136.7675962231265,-1.7414688065046358,-129.48605489080168,-201.84309818118135,56.58848462246882
0.048,37.47510608802534,321.0931948457451,-4.932088893936792,-126.28301758579777,-26.127513242624907,-104.18951111207156,-195.1622508349672,-9.672861989671548,-108.29864556186305,-182.5599850345702,42.49131558201819
0.056,-38.95417101964836,348.56046695973174,-33.66321103099904,-86.94674974395473,-11.511629096352955,-149.43232179744862,-250.58135938115117,-36.421940046489794,-75.96107915684925,-160.29536522943093,46.396298250793755
0.064,18.827209166878188,278.96328881851787,-34.330168537632524,-230.92049070658925,-28.923463600365913,-101.06312186814031,-170.71933448241867,-40.82629471789025,-112.80156221743229,-165.6377165632465,68.1265256561066
0.072,27.470196846184326,276.1237042360705,-35.49925724404214,-296.4228181788389,-29.25718891036599,-75.71110514552824,-129.2787995726698,-44.23154727312073,-140.3127213674485,-164.77317655992687,57.221200082508325
0.08,-35.81329172424507,359.85657320907603,-40.47588583071145,-176.63178955437925,-13.32406717996308,-102.04892667331134,-166.57563995497753,-50.91978829067523,-111.25419604411516,-148.4851023511312,26.441179545515883
0.088,-12.770437583486004,383.508378930756,-16.769051970844533,-135.05066833160257,-31.54805312886798,-100.30679422896931,-172.7751855246504,-30.678898543493972,-94.74826653870616,-146.82525790845264,47.32701237991483
0.096,45.143517884325334,349.61211700900145,9.20989179075287,-196.5493865384916,-57.15304871464983,-90.03113211620919,-170.24254111347057,-7.635884661219027,-113.00296181662142,-158.034031211564,89.57111089149205
0.104,48.14516790123227,325.66760457189883,0.06619981746795264,-223.7334489038367,-50.81465753082751,-100.00752113256884,-186.29941655557855,-18.814996553576254,-130.36303590539663,-158.05951272960093,83.24211854929545
0.112,35.797888077314106,304.44188676042273,-24.07119231004008,-237.9789327848743,-38.36869399055914,-105.90703598400698,-186.56877920073785,-42.10163548355788,-140.10132665338182,-145.7926986943927,64.92220792740203
0.12,14.242089599944318,306.45282108772295,-33.134496198067495,-240.80037798753483,-37.41329662424793,-107.99396011275302,-181.79900197585016,-45.78981384593736,-145.11880781254038,-134.71466587336403,74.94636038915537
0.128,1.8317491945155502,336.7044256141759,-20.52567758584758,-233.22272295890969,-41.645745416060606,-95.4786171889694,-163.40913130469417,-29.88006241872157,-140.6098597868985,-132.79498178980924,78.64460413170644
0.136,38.6090259179389,346.77237891608814,-1.01499132162701,-267.5863090074214,-52.13293394356076,-66.98440947823563,-129.61410600644052,-12.882472298085792,-121.96185244792812,-138.06649028643932,65.54368771686744
0.144,53.495258038446366,354.5511945106198,-0.8763185230189993,-261.7334708034313,-54.116429851550954,-70.89330028557784,-139.92894437421393,-13.975245579102285,-88.55803108816701,-143.20342413880869,55.743764864860246
0.152,19.8941421307984,375.9943984299456,-13.799747857297458,-200.55065389005503,-43.35418566778913,-89.01788114360096,-160.8520770394875,-23.37188644203787,-67.74955834095589,-145.31832099843112,49.20688065437477
0.16,29.917097747604505,354.6736189859668,-11.386525158705062,-241.56390194865858,-46.96644352926392,-70.2224091107185,-130.05193443507787,-18.04301050383736,-79.57500203109818,-144.73548745232475,55.304219003229356
0.168,72.30216828945554,313.2895431793146,-2.19604957456148,-326.47208688203733,-61.2215230153362,-63.884299797616755,-129.14929769710875,-8.140173593813698,-94.33472672962883,-143.7751459780943,75.75597717128676
0.176,74.30853856786929,321.31956118359534,-5.457077928095287,-307.274360297396,-60.088488232189704,-85.09165892581484,-165.98483538719293,-8.567338259273253,-91.72840107957208,-149.51822902839572,78.03776023237859
0.184,58.169588833946,346.38926317379844,-10.398863354617117,-290.48894504161325,-53.67335924787223,-60.587181135568215,-119.14037578306827,-8.270681197520778,-80.66701863245746,-159.64434300072662,61.25528366812166
0.192,35.626569694811245,361.2170126714925,-11.40575073879606,-296.5896329077557,-54.34430825002134,-32.58885326744361,-64.29163999337923,-7.063460533224538,-51.43499641570163,-160.6547639837311,61.89699977072861
0.2,1.435042318277003,392.1175620112797,-14.097271368952711,-209.5364884261142,-52.75453255475258,-75.45163120712003,-130.33081668065105,-14.056433126714856,-7.998556643956427,-151.3024398851799,73.48227586384417
0.208,10.996874295480287,399.3314227855144,-9.708182424151035,-183.4520965120449,-51.95024685741984,-93.42922893279494,-167.29983480076348,-17.64705073420352,9.889873252686408,-140.77419772873657,57.743994506638586
0.216,55.03685044481913,361.8677760505541,2.0195429517984014,-306.98026283688375,-55.65384290409868,-34.71307207570311,-81.73452496261716,-11.073062005463143,-8.256152465189688,-131.9625206605883,25.425238398393393
0.224,65.98833055475002,351.43632524048473,7.16463051603217,-316.6763598839287,-58.22990828864154,-21.961897190449953,-62.92040829943457,-4.796612802675448,-32.296505249952766,-127.42573535960369,26.725222347653123
0.232,66.44183154717763,366.8430741587903,8.566442460304291,-185.69754723277498,-65.33367488243637,-71.98917114435352,-144.07821012018857,-0.9725695308233,-34.32467746819455,-126.02789707167955,61.608059026805115
0.24,73.0666349506461,342.2831691654103,13.709258844883394,-165.50526433854674,-71.52958594187453,-72.01523517801843,-143.79312265161752,0.596528761382175,-4.319460820080679,-113.31158234154388,72.86475203059335
0.248,36.78264591584145,303.8688991548629,13.855037468488458,-216.65481945466118,-60.28924325505663,-36.747355807922894,-79.10213743860659,-6.242636785379915,35.4668806617642,-87.05208010449249,48.71912587034038
0.256,-5.957713093919426,285.6899124708897,4.438662839580067,-215.26936565856698,-45.80203535911866,-37.48922140945423,-71.18234725675968,-18.607369356493155,45.11137836195386,-72.586757185626,37.218160795778786
0.264,9.433780669886996,253.29329996778785,-5.0391233479020165,-261.13417915755326,-45.66043034453048,-38.83443333902537,-71.34211526197129,-27.52966730824003,21.254147912270774,-83.30771155693091,46.21428007384496
0.272,42.14731632101314,216.71883200709541,-4.003731150762283,-331.2533000929764,-50.10411457830189,-17.209840468189725,-39.60959424785142,-24.388226779158682,3.305622949199335,-93.55520177991845,48.18723868540136
0.28,67.77707563243224,208.6623269987875,11.89208215121453,-301.9420147863557,-60.126945674044066,-12.113614507517724,-40.81298588646282,-2.639014017512116,27.74271760805147,-78.6502320972183,50.86962707232125
0.288,105.79198767128646,197.19573761131582,30.332411026180694,-269.304969602927,-77.40937826415082,-17.455477089325694,-62.463716213942604,19.65256505578567,85.36877745266818,-53.86085321240833,58.685408818768835
0.296,96.4340506652756,165.55408881850343,28.120309853294945,-299.7353565556791,-74.2164417138471,-12.87252899035372,-52.72842081186888,11.296234307244347,121.16510059533236,-41.08084174842915,52.294279110228864
0.304,22.74634003227791,136.99848754234455,8.132402178244659,-271.6486269934352,-47.41975681136901,-23.817205327825896,-51.913774890031384,-16.330427480234224,105.48482911518434,-31.174766070068724,42.429936260682574
0.312,7.927670244648013,100.70599499445063,2.037554347098067,-193.32129589283676,-33.279940186406364,-48.263881928227605,-89.38547654085158,-19.4796641776092,78.69710126502251,-19.463282147933022,38.859335872427216
0.32,80.41039041686935,54.98712888491383,19.704901348505512,-174.56668686661612,-38.336073873054254,-41.08021207390604,-98.32375701962124,7.231260695086248,83.57379098983245,-29.63491985778128,23.873432670400447
0.328,106.71523002666072,42.180739425911945,34.83460131583463,-155.16322226104535,-39.05899768211588,-4.904725451679142,-44.82429354425521,28.45750076165023,111.61063903852403,-63.72467139569092,15.47593582283241
0.336,58.48588182086239,68.73505173328755,30.401251974746547,-41.70850960973399,-31.93982567248727,-1.0420153945145625,-21.22964228670836,28.378217283675916,136.93698258751922,-88.55397375551465,33.94524639415951
0.344,38.72571941608286,96.367518201976,14.96024950516161,87.54348329012522,-24.442634899861417,-49.07259335901438,-93.2640037486171,20.966209519547224,143.33696588749947,-88.45445889128902,39.3574731772338
0.352,45.51409088640801,99.24758349431858,-2.4289325877501855,109.00684274301396,-16.079498595138478,-79.99384544967995,-145.79228440455105,11.86735614388352,126.25518916576127,-72.31425116159714,19.015974224811455
0.36,9.276379780199676,65.53171029449621,-8.78716212027965,36.9071436846085,-8.352411574583382,-40.064258713033794,-67.12701774044393,-1.8859316551527947,92.94009084165491,-46.88237424649803,13.386092729452901
0.368,-20.539846151955132,3.379865791073081,11.466455092899215,2.9445952897766103,-2.4780802252819694,14.788042919292952,29.505670056699024,-8.255751197380434,47.199090848126765,-24.15219319415619,13.240630714614031
0.376,11.97864873475504,-45.83511284042362,34.52603973667332,66.86169409227657,4.629370838287323,11.100347873285651,7.240382619587487,-2.025067660733934,-1.3605347049321264,-13.16967440659436,-9.325743296022956
0.384,33.51658546717981,-53.24416292394219,20.82712727820024,124.12207724545326,11.530771304389248,-23.83879587168533,-54.75336750339992,-3.1780654257997663,-25.611364203240782,-2.0176223216813676,-24.393573369727896
0.392,7.377329454585838,-33.08785999547317,-8.806268567155161,96.18294830578002,13.140834925408821,-28.691454984787566,-46.883925870277025,-15.402258082619698,-25.42911968492095,11.65216085460261,-17.367628705113443
0.4,-2.964802778169849,-9.327730353297264,-13.49241145382669,71.81391224797008,9.59617411225433,-17.319473268712287,-22.852709415852395,-16.814924606499602,-32.048300213818955,14.38785777911227,-12.67033022146858
0.408,-3.8274242356857053,7.686212693355354,-11.974317295863985,127.1934248084837,7.39681821289567,-32.22502133905443,-47.5243120272831,-10.633683949976211,-48.11289217174001,16.416386145758604,-2.445223673005242
0.416,-33.85829456659631,12.837492347498355,-25.17721420165629,186.5478997649777,10.007721854488121,-52.81514116061802,-69.34321852065041,-16.440793927196196,-59.93307147191334,30.826188118503765,16.9137244040562
0.424,-46.977862496787175,8.800879820517707,-27.197448675334805,173.46738791469696,12.98392338756173,-39.62485596059122,-42.7700441907617,-24.57078537294047,-72.3093538387182,39.139213229488156,11.952215053791202
0.432,-40.56187956820732,8.846524823619069,-15.379771367486716,136.13038077956125,15.83908594457688,-16.742939034045566,-12.331330929457158,-21.704106054918615,-70.26496236048709,35.65667752799385,-11.179110865436886
0.44,-65.47284667037589,8.774896061707656,-12.932001383683396,141.42135202525787,22.042811445163572,-14.20420531964728,-7.215413203031644,-14.95451092361461,-35.89342254922155,40.356408521714364,-18.612343765566504
0.448,-64.29642076256978,-21.865189102993064,-9.456043083119171,160.9531744202338,24.648436804130554,-2.550439506084021,11.711069892556766,-3.3274922891943275,-10.924287188769334,45.177123764979854,-21.26305878009215
0.456,0.47124478361128774,-86.00874579037351,-1.555425287276286,138.20885647452403,22.151575406329986,25.65444987738976,46.706698382463095,11.68413051710611,-33.80781222577709,32.4599165103381,-32.510216054660475
0.464,11.779793776718178,-140.82400957170276,-12.711007760158266,92.83372566883617,31.162666994927452,30.78031326021038,56.450327220235295,9.231138362458152,-68.94009576328234,24.138952645434486,-35.47127825824461
0.472,-56.62679025955651,-168.08654897676104,-25.42060076072231,61.97698744862984,49.210004127791805,27.82247470747177,66.1996428575003,-5.58796156955374,-83.82852829543006,38.23246386213591,-32.4209512885323
0.48,-67.421436997584,-193.54056609588545,-11.748314407659532,9.238392469178299,49.607909432033004,56.52362936404271,111.89110726343804,-3.188161384515473,-99.48316629745081,53.71868961471421,-36.05124355480866
0.488,-22.323538691089677,-217.84589422736033,-5.180976251339231,-87.93739285059415,38.22543734274267,83.55199151503537,147.10157510396118,3.607652210966127,-120.34724235491893,61.65226291176851,-40.11433225831985
0.496,-61.92199894982163,-218.7903835494303,-32.560491850606354,-161.01525275904507,47.9168981694742,78.57537765093014,152.8400131610852,-20.284355710873598,-121.09056777308405,80.49014290312651,-47.1843193469425
