time,C3,C4,Cz,FC1,FC2,FC5,FC6,CP1,CP2,CP5,CP6
-0.2,99.63546401996122,-328.21969136934234,28.202481090702978,-117.8544516601791,-26.099185687183912,9.878538529106107,-7.3332954576356135,41.048166046701596,238.48274257008302,99.84918233173198,35.44039684030448
-0.192,88.34615965564375,-289.13169268085375,26.924940741832767,-115.75408125693343,-33.46927387101179,12.814249982541055,0.6435365775098939,40.663332555180105,187.25531442005325,140.74515943139,38.173509416548974
-0.184,86.35849489870792,-267.6684194757685,31.851159687802664,-99.12417962426487,-29.575736911362,15.622309264797769,3.992859668589924,36.06605226070729,125.16300488157498,130.37693388350328,32.638186790168454
-0.176,83.94633439470897,-249.2934803797047,36.22204752295266,-92.07343540297373,-14.738896303619422,19.218840105442943,7.619245951553859,27.24589346130668,69.53645838410046,63.95002225016269,20.97163144779695
-0.168,62.69561647580261,-220.84476504678568,32.332905522518125,-80.75432193790259,-0.7666167755784656,15.893365190016487,5.9112041816309855,14.198560125999192,38.825756598532095,15.7777933111948,12.483969530455418
-0.16,37.008064655726365,-175.77007248501988,20.25979377772477,-48.631567300785356,8.701577199347096,4.499053820445251,-5.477600934209804,-2.6702657276045767,14.322917494249646,3.4328843826198274,1.3100275024246013
-0.152,25.833437036420257,-105.01719212626018,9.119121717592916,-33.58510533950408,12.110315342806848,0.28994071581400305,-7.690806820014235,-17.054621955807914,-18.678863822002263,-11.531566308032867,-12.890641156752146
-0.144,22.55790759994864,-21.410836862769695,3.787486104291138,-46.56260312970347,3.0055952030219517,5.727278873776666,5.502982203853733,-21.86464859464381,-49.78567810530758,-25.781711612493602,-7.160050627815501
-0.136,15.130499996611045,45.92744471342546,-0.34664540066678107,-38.71977205342146,-13.11323752842841,6.212246580939922,13.825731573082555,-19.66171087655517,-70.50204755024744,-20.399662291222413,20.545343844134603
-0.128,4.596831187946498,85.98349278097623,-5.721149681790971,-4.739587036068139,-20.98116850725732,0.388179073809334,11.405258349158817,-19.58233030018212,-80.08375334030046,-15.091048059446852,39.26000013638116
-0.12,-7.730307182793226,108.38454386021161,-10.112735090323312,18.385593427344,-16.553298444336455,-3.929316079882183,7.678824192351391,-24.629612794881165,-77.69443836319707,-27.76449848144356,35.156980750601704
-0.112,-22.652760250985803,124.25923413968826,-10.983878273793346,33.24471478988246,-8.48581746011501,-5.455231769268766,5.5127401584795725,-25.97025560457374,-62.4437134300248,-40.92971336476425,21.655920039699062
-0.104,-27.773599705410728,135.64566614860834,-6.653111262925267,49.68019731151411,-5.829096190681475,-1.8632501912528865,8.31432280129249,-15.88346273978698,-36.57839872579677,-39.46666563128394,9.520640871014635
-0.096,-13.95742768508245,137.93829251702473,-3.4571710337395296,53.8374818204756,-8.235325088224924,2.854782226951949,10.8400188780136,-3.563623865526666,-10.256880988895459,-34.35846585323344,0.1418874822664648
-0.088,-1.0511641625934283,127.88110666125331,-8.695358684652382,50.32022914352365,-7.350263512695032,-1.934295654489535,0.2777439274198558,-1.1754930431291297,5.349572777044172,-27.49104066439553,-9.518068576720117
-0.08,-8.632116879486711,103.80852818083305,-12.656245512477557,46.92202218343269,-1.5385823318741467,-7.421027371238955,-8.775124771598154,-2.7211077281303346,6.599701878605783,-5.4726780941401625,-19.3075931915751
-0.072,-21.650224333875315,70.80503773244763,-6.064399301739296,38.57531206030834,2.893177995756963,-1.069018650009162,0.9158870444862652,1.6177483041696363,-5.855532572640993,14.52772341303344,-20.68723795811152
-0.064,-21.826141720288607,51.87651982950882,-1.1238630164585544,41.51220376062832,6.047425616522741,2.8535679506035,5.866012097853584,8.826400062705678,-20.0915451173015,5.365432051378317,-16.41329475877105
-0.056,-23.1462726457025,65.49851466947838,-6.209405047209654,58.460447065204306,11.699775715493729,-5.54285463462583,-8.895318933865665,14.068644277442639,-16.062318841369873,-11.78302753416785,-22.89693369884526
-0.048,-41.46696717721375,92.65860618853851,-11.65776840973017,55.594957327954035,17.84931748431455,-11.482165801992199,-17.892357695917948,13.692376039858669,0.6892635045295922,-13.5144228717067,-36.593163063024065
-0.04,-57.2425700963358,101.09672433586871,-13.957176242587712,38.992653054033575,21.960017194235302,-10.814138700136118,-13.551964780335787,3.400330107607052,3.0224333201398754,-22.475557779773506,-39.68567102265432
-0.032,-50.155570008194516,89.94806046152242,-17.801311134858356,44.44329742701464,24.00674746111017,-12.941894446212581,-14.350145737921585,-8.776414162038904,-12.702352092075099,-40.69878511220317,-35.785915703057555
-0.024,-45.080912978021736,79.04684621411374,-20.787165451154195,52.489656321439,24.159751519851792,-14.293831571133964,-15.133896060029313,-12.14188518752581,-31.316107029803053,-35.7904683604633,-33.577923240926935
-0.016,-64.18733325924602,75.22135189942178,-19.64748483292186,36.6309564148715,22.991634155320213,-9.287234597508473,-2.496044496443257,-12.116975920115548,-50.672187266453165,-20.93284703821061,-22.0067681701571
-0.008,-72.47064031818252,75.70645280358505,-16.842603663325423,25.607104249355437,19.085911480973515,-4.771006368483585,8.880718166549409,-11.134149038981924,-69.78459504424934,-31.721779222838553,-0.12422404052592348
0.0,-47.08480151806415,85.66972728999838,-15.982464125063652,33.102278384754655,12.225252243613504,-5.447086478010755,4.409469916145416,-1.8809457021947298,-76.73875353924811,-48.821192775194085,9.34899055714008
0.008,-31.06192459543435,110.82463862598964,-18.08465449310619,34.173420251709786,7.854085576318473,-6.15846677592871,-0.9276967082992105,5.803161424480031,-67.29153096182199,-43.75792101584517,-0.08191772853084005
0.016,-46.0879985246014,142.37904049591458,-19.19991026302368,34.487303220272345,7.559394054545812,-4.0879260209866946,4.854838031199656,-1.0526223845743967,-52.2942285134245,-35.23220877649341,-9.219529209091984
0.024,-54.100758156247366,164.7677956827122,-17.481734822697685,53.033976049376946,6.916946431087667,-5.418900407634678,4.436558133312956,-8.630635535983641,-44.546461367079296,-38.58181642052351,-11.265481773419928
0.032,-45.80693406818762,176.43861493885538,-18.021214802380324,65.35675018299723,6.042597641469774,-10.409801045169626,-6.292254789791532,-5.773474236424051,-41.35956648859261,-41.081459471242056,-15.440822130304316
0.04,-49.54191539502361,186.08935142249985,-19.695589440667895,52.510797827111844,5.417104896011195,-7.511364697752089,-0.6390317640662216,-5.787714879072973,-27.622804261923267,-42.89995643562533,-17.17867938040896
0.048,-57.72815132334166,184.73383423116215,-16.565123332245065,45.66804638024784,2.5929172005222254,-0.6369171390337602,14.252929933625962,-11.16832634919149,-5.866280515961926,-50.82426814009171,-7.730181210538505
0.056,-50.5104242216609,153.48469622886253,-14.366473256921191,59.63106569826643,2.6255799855196567,-8.028480627562596,0.7032203366435825,-8.54412706573196,12.426464324667414,-54.12064194340123,0.3660849090085877
0.064,-45.41513351064198,107.380923858152,-18.16941385177076,61.189743637011425,9.709291088465466,-20.53781491001554,-23.539933249332005,-0.4352014331337324,41.99417470137999,-48.65003835297516,-5.813813775281398
0.072,-49.661735411284916,79.08261603659501,-18.69494724498018,40.11532534905886,14.950690147356363,-16.824067877770716,-19.53038895994273,5.904226814582895,82.90891386038473,-41.20506979954732,-17.26216371743897
0.08,-36.19063254346298,59.789187378313386,-12.395386990785536,20.207309359102315,12.694793463781835,-7.248798354983733,-9.567010398815162,16.832998526035972,90.14352249171517,-27.654000397559614,-23.56671927854692
0.088,-8.401709858976696,29.34343521925055,-8.52106616280994,-0.13292232740941531,8.701290345950232,-5.4077011065963605,-14.001099767438825,28.890723150270205,59.82182407724673,-10.386421598570003,-23.036300727772197
0.096,-6.680379324316685,15.513937028855644,-9.41358194355448,-25.350153676796932,5.791642710616854,-2.673358917616394,-7.918410822014609,27.574404104174064,47.71090188527752,-7.27132914406978,-12.516745060620355
0.104,-30.005338777180285,37.577064061073195,-7.612117979147015,-30.609899016248846,3.7285368182363388,1.359027009063732,5.5526611824659495,18.01691306824774,56.2271491433159,-21.56368611490474,1.5923127681027072
0.112,-34.745407060215065,56.93248503213038,-0.384686767827471,-19.18254278152108,4.366975615071683,2.072630297168076,5.906012581162705,14.704658002486985,40.72379376430114,-42.12376140848683,4.587203722875532
0.12,-19.697151486625362,55.04491597407031,3.831417305946549,-21.094452725940645,6.143136159577495,3.9516689987621563,4.715863047902486,12.823660094460745,18.377974350635903,-60.97106206511881,-0.41030348918915166
0.128,-22.019949321796897,59.276357252546674,-2.3685560313873917,-30.148050338511805,7.540165967778808,0.6728978126730374,1.9469745002282313,4.119191200162875,26.662996272308437,-67.50307685292697,-2.3062051863521407
0.136,-33.4902797034853,61.74342415608442,-8.392120086375773,-36.840845354923424,9.323908020021593,-7.23752085252125,-8.044852697458076,-3.939183840531172,37.02102506197445,-59.2049646022578,-4.0166256829134515
0.144,-22.795858342961782,34.09676750841756,-2.8900408685708108,-53.516065234511906,8.215676783773384,-1.4167507416019518,-1.1820015137384976,-7.094645813620522,20.361624199944192,-49.9866020924225,-4.578209378626873
0.152,-12.80432987765858,4.382273366460734,0.10097180567416757,-62.020404409473095,5.510932387112724,7.036214388897614,13.789734596160047,-12.623221328718607,0.0549020149125628,-44.40814943680245,3.1017915609373765
0.16,-28.676634496076712,11.251092075123243,-9.504854260270895,-48.37293413066907,8.491559472781082,-2.3691994163137347,4.552806396298769,-18.071413394328708,-10.69285807496671,-39.89445350771812,8.287114690615883
0.168,-34.52891732472361,40.38037243061794,-12.879559135979564,-47.545002873408755,10.867052089360582,-6.456899222071539,-3.065862276931512,-13.235604292729526,-17.236586277797578,-44.91060065323969,1.399329431459083
0.176,-13.189859116400505,69.87752228166582,-4.650595535023564,-63.7395485008871,2.7425428473455518,6.129502954185076,11.142477116565262,-4.680447162051763,-3.7984820292439077,-56.79304676670554,-3.911238023537818
0.184,-4.605380439206795,98.68948579301652,-4.2515399756241345,-59.94272148597348,-5.180714222068016,6.558253852393396,11.490398793335686,-4.464053680381916,25.900412486266937,-62.23339980548514,-1.0934988596680968
0.192,-16.585571668636447,116.72693368452249,-10.428846363335907,-41.67222482767825,-3.1469848410809833,-3.3490374989726774,-1.5464999656375373,-5.606198192739258,34.72440466246774,-65.92380553319214,0.5240180998873617
0.2,-19.240096333074277,116.82327761982208,-10.273622027631848,-32.04272784014281,-2.3949642616126163,-3.8887877390412258,-1.613627038929328,-2.5851361642772495,25.988631705508496,-69.72618516591801,4.854496543493446
0.208,-15.499381987185014,111.63678511978884,-10.799553819980845,-28.279183288864974,-8.088018302775595,-7.9131253179862195,-6.358444157492438,-5.961748660028581,33.34207821558628,-62.80291829923972,16.434147905170178
0.216,-16.48360251749616,105.6430398299472,-12.24088610410918,-35.29830397320894,-9.665351192920891,-12.93152908087894,-13.632563382004985,-11.690910356351905,44.316542548602904,-57.67758334044461,19.60710944674675
0.224,-11.646391528132693,92.99086814625163,-3.7598161404971435,-50.70547986191631,-6.103553852916434,0.896822606716849,4.418050797955791,-5.085790983521193,38.25744227994203,-66.70179009322916,10.27047660183826
0.232,-8.117759838526489,78.62131264784448,2.726554146769576,-54.487348180314136,-5.034977193176969,11.01120328326937,18.0141591125805,2.6634157935098672,40.64369241272191,-65.10351227370228,5.954569277567983
0.24,-17.53994775158255,67.19497705033446,-3.706904885380423,-57.17865436845641,-4.08458251249087,-0.7039391329903044,1.1606889389283426,-1.7376857373629848,58.668630559172705,-46.364355914723994,6.7658583178131995
0.248,-23.859996985392034,55.984129483526075,-6.25227056563557,-69.82693498876394,1.5105766493669666,-5.976352493477513,-8.303434218307956,-4.120997779357907,58.51386610336474,-43.42811042581025,-0.6563763274395744
0.256,-20.612430764724753,47.403016944783204,-0.9188982426890965,-71.19715028716026,6.412939150797531,-0.6372088796309561,-3.125231031997236,-0.08913347569525683,40.145623208535206,-55.004088806500924,-7.433559391079615
0.264,-19.31485634927365,43.116727007800854,-4.159348490678901,-69.2621396289542,4.9533339465149275,-6.473675207997835,-11.067806325364565,-3.645976718426072,31.333931292445282,-50.508435757190135,-1.2837273984556776
0.272,-16.49112194479941,38.589011990908425,-9.866869439821825,-86.22719853095323,1.2355589725399458,-8.325912357133426,-11.354088646667556,-7.786892778114876,29.136293087296227,-42.62436223030109,6.142037535207852
0.28,-9.839414105678586,33.624768438963116,-2.460910183212426,-96.25662807238962,-0.028876451932265075,6.356341550814159,10.461662625852972,-0.23274612763147984,26.00241172372266,-53.536063299645,7.265093182013717
0.288,-7.011504254977142,30.467619413836857,7.996682900302139,-80.52706293365708,-2.807780214854868,11.767609988636998,16.810240912387524,6.999700956711832,30.77110432224036,-59.380491775247265,13.728794272519403
0.296,-4.165969155134419,29.441091352277653,7.708152362806364,-60.09394492762745,-8.717263129711055,2.1608556125331355,2.2487541617228675,5.391070518765205,34.72793165205701,-45.013550552227,24.911006989580994
0.304,-3.2494677801973024,32.17178874841905,0.7347375830805706,-45.04525219909791,-9.696909383702131,-3.171814734667302,-3.4561965376415174,1.5855745414721778,29.291612633360153,-34.579439009857325,26.069429270617057
0.312,-9.944764827131424,32.67046847953933,-4.67560520142811,-42.821627699096155,-5.843564893203031,-4.180989106394425,-2.678189709821895,-1.9576300192247715,30.60561664518745,-33.753141400094655,20.678016684618353
0.32,-4.581830459175662,20.542640497476746,-2.921270150719528,-58.986862671836086,-8.675793660571715,-2.2520918777237924,-1.0135515847940952,-0.7724584419361039,41.62153280703014,-24.792035460712647,21.757793385082365
0.328,13.901165372651057,5.336154868117128,4.205329980162262,-60.55561516661894,-15.114749257880147,6.937233477787168,9.559396601389702,8.033879403742624,50.21581560656112,-9.036993025851869,21.33048301921865
0.336,10.59885331311457,4.014690690395509,5.259784679142828,-34.51081627739246,-11.53518556005344,8.368012359812374,10.716357088023909,12.288040551081593,57.772812729992616,3.610072838897492,9.05726980613058
0.344,-4.42192120309723,4.914306796752026,1.0261041383050185,-20.743145914074162,-4.551413777459846,-1.595435723049367,-4.683680878706119,10.594421944480166,58.4716161527537,11.160765083478978,0.5415868588370982
0.352,8.109324740495817,-13.039224525143217,3.948569279479473,-26.008567440130285,-6.903951273903032,-2.0630539287895933,-8.191928305864938,15.630038914762096,46.18469161911612,11.630490728094612,7.123985560118542
0.36,25.404947641323748,-40.84276819517658,8.82286064255933,-23.146812121278906,-8.769355428800292,2.9844868292713804,-3.0910483329483065,20.00228429491916,43.250896367169446,12.391333699922445,9.416350629328772
0.368,15.823926414607548,-57.98859946868283,5.9937646018593975,-15.795111642859403,-1.6993464738171937,-2.7640993518566104,-12.158298390079796,15.218667817458346,53.13133588078322,23.41144106642695,-2.0242248425656086
0.376,6.667267765342158,-62.203922244972894,5.5217265598588705,-4.4697749110144125,1.8629981106597313,-5.8305561369205465,-16.90261259311581,15.730163000921362,47.555761185722055,36.70701673252266,-7.421995021355952
0.384,14.59605512826391,-58.78032260518432,12.233283391462535,21.330119773320426,-2.765193147232075,1.1441274602850682,-6.846157618591878,22.51842719629385,32.89573175325851,45.03047785423386,-3.6078406239581473
0.392,21.576445125044273,-54.1334385704244,15.456882856452111,37.125829625988274,-5.362839721165377,2.7713153208787826,-5.413645488626917,21.33923740146645,27.551784416197016,50.62843282748182,-5.550819115863477
0.4,22.704637419434672,-56.93064787681874,13.72985892359683,31.815553580952557,-4.078897323644703,0.48786083353191373,-8.741658003980858,16.402009757282887,13.55249466312479,47.85467394520463,-5.638423561481268
0.408,13.071489169785849,-60.48594897504821,10.783972571361806,34.81247702775778,-1.5749396362180508,0.8317367071986221,-3.643159161238987,11.599298277476988,-5.236489096288548,39.63605395077483,2.2436640786423254
0.416,-5.818560173881901,-52.65116158728922,5.533125161207776,43.04476933480169,3.2720880362463163,-3.037079121014563,-4.854421383559888,1.9867292114854458,-3.3723317046707217,38.417355511497384,0.0412702581472998
0.424,-3.4202151329583512,-43.87378950986635,2.788110953283431,30.833699063667584,5.534067241954695,-3.0365435444553777,-5.907182750784101,-1.0247403358016052,-4.387127353506385,32.26542733409409,-8.853597851972639
0.432,17.09931838832455,-42.34390610747382,3.3452447134680763,15.338746512244748,2.7385015988973334,7.3868652611526375,9.02455662337687,5.714979948454433,-26.46404876191841,11.728398991092325,-4.90359059898178
0.44,16.416917929113175,-33.258607914540434,-1.3846515222494455,19.57870933100111,2.5700025074261457,7.494882470561459,12.27943549652501,3.55910496209034,-32.668155446524516,2.419723974051192,-0.6772637366784703
0.448,3.238389267994041,-17.72656231012036,-7.014138380868749,25.348688104926545,4.5561373876653946,-3.827824383960139,-4.06383563152392,-4.484225282339909,-16.834586131710843,11.105346646810997,-6.362029829864775
0.456,2.912534975923599,-12.48986172579432,-4.972858546174461,10.666362816651088,2.2071629814529543,-1.0803614726978557,0.213298383543472,-4.995027990500162,-14.19294469360023,8.306609197598414,-3.2758698311156516
0.464,-0.3931163260830209,-6.692193179519124,-3.659513477324617,-8.062883083019994,0.7698865228908545,8.062071885474591,17.975101759627677,-10.160446743863469,-23.528427527358712,-6.123982938416586,3.631120303312224
0.472,-8.92736535639891,12.22372249759779,-7.299021067841389,3.5901916479196694,3.678049917114411,0.8825915739022093,7.935934815598544,-21.1744594825161,-28.88516701509577,-4.607132502231977,-4.554060219913073
0.48,-3.4678765206020947,24.52880990786351,-6.795649625312868,38.08672939118275,3.0108311350708257,-6.516614659793586,-6.62653169581862,-18.08388431470504,-36.182814654532905,7.675471454393798,-10.958610543833817
0.488,6.195219411455856,23.023320474965445,-3.8990045127486153,52.659860448458225,-1.3419688650689823,1.0373180038085614,5.366581280205356,-7.255131303711625,-41.44919354876454,6.607740878421695,-2.849794148380824
0.496,6.309830527228391,27.891387448183455,-7.16636603626639,50.163959402286636,-2.125185679444278,2.07544822454703,8.924592297105578,-5.380063923736378,-38.19585063442887,-1.616237276757886,1.9160997296051998
