time,C3,C4,Cz,FC1,FC2,FC5,FC6,CP1,CP2,CP5,CP6
-0.2,8.589896534861307,-28.79110956843216,5.51355016874016,34.43356024663123,-9.52153826777874,4.4750191646462865,4.81997590742727,10.211922383150545,-37.99769063533573,97.8632616347019,-5.323578773999016
-0.192,-2.386451471588012,-16.666566991305725,5.849503593147181,34.52396016137588,-5.631082605266929,1.8368837761756642,3.368959976930085,6.95857477005537,-37.580686448633074,54.69170541377642,6.181637248436022
-0.184,-24.872659783607006,4.029085982197969,-0.19813409614109098,30.4204006507318,3.5491674863698104,-3.543383538010894,-0.32824582437121863,-4.689793139552916,-15.54253402993835,12.19973098096276,4.401021101973221
-0.176,-16.801368455313767,10.428017844267881,4.527008346525652,18.120308007057442,2.3229482433744884,4.668452246276939,10.6565113833276,-4.780496843556822,-4.667069965376361,-3.903524789038282,0.7230971986416962
-0.168,2.356469066208922,-4.1317700482877,9.116515676758098,17.86670976559683,-2.3967748459611884,7.585986248215533,11.193605807585566,0.20292380535039217,-2.071157012248454,4.055010188954221,0.9966240080079517
-0.16,9.73708179687048,-28.846597045392468,4.057016269139132,20.036308917721215,1.0559956971489495,1.8784775329135062,1.1086348276196971,0.16611306443016308,-4.155030178457774,9.720582731795558,-3.0100298356494437
-0.152,7.800989005860109,-46.788381203198334,-1.119771906618817,8.008630474824326,6.466299348909202,2.2213386268347666,2.878362901826695,-0.5089214779694963,-24.065866571437287,9.977600958885366,-5.835766849224228
-0.144,-5.792515902379479,-42.69613935798736,-4.089409346588026,3.3614794935708305,8.212703488763234,1.007696280380388,4.130134210389611,-2.0756299588847553,-40.499064196708595,16.08078298532474,-2.290627767100415
-0.136,-12.943437748947257,-20.888028793073318,-5.333328637158877,12.929485554090705,7.13478491915018,-3.048323431832778,-1.378678052784003,-2.613423266150709,-28.804796588452028,15.352272901992519,-2.341458735963094
-0.128,5.844365898123242,1.3956063884194605,-0.06958221889647999,10.687385436061431,2.121203095685631,4.531659007182321,6.320266383784069,4.668235769073957,-17.57780325921803,-4.4306261579730295,-4.852852996435661
-0.12,17.976903951620564,19.70290687525559,2.498127451385617,1.4734928089337391,-2.048857209067923,11.919352879766416,16.838301829178512,8.30165555703055,-27.454635484541335,-23.366365264590417,-0.8311818057733636
-0.112,-2.093702947808552,32.808645055842234,-5.883869516153251,7.643937219967066,1.507735433529012,4.011486023510967,10.525449491632704,-2.7776683928399097,-29.147012501510787,-25.176845656416575,1.9170705356674953
-0.104,-18.40986789764902,31.263671661299526,-10.11890334529227,19.01062276092609,6.418800637226072,-3.7915161628013774,1.4127123643990582,-11.698023984277585,-13.972039523147732,-24.186443634313953,-0.831497636902256
-0.096,-4.177905786138871,19.71284123958682,-2.3697456345458927,20.617823304839217,2.850376622546088,-3.0930317301459453,-2.334834172492403,-5.531099147238139,-6.628037190549964,-27.478694852666756,2.635669615414267
-0.088,13.565593083148215,15.116024472392871,2.803105956358702,9.954759458313625,-5.193167580720417,-2.435292802849118,-5.705202051600881,3.0802252160712364,-4.382170731082415,-20.61674320078609,10.49533478655121
-0.08,7.50794538960429,19.852286529128804,0.5814014500541123,-12.19913879539978,-7.463165881395351,-0.4036077244840212,-1.4591639876065532,5.142659886448274,6.417216756417255,-6.395644952354857,10.318403243287749
-0.072,-9.973330492270915,26.698639610726747,-0.27103897780311587,-21.43657374565141,-3.5555534023498105,1.2407634535879082,2.8943044140752736,4.733145556327247,15.427953287597779,-2.6493711395400816,4.827896324260229
-0.064,-10.864588703970023,29.38855464040422,0.9469008663023024,-7.2368049573562825,-1.0595829701354904,-2.017244967692111,-3.6780731172480223,3.514085733572731,20.987154604701526,-6.0530251347659565,-0.9505329730312306
-0.056,5.057800279954783,18.272422805944874,0.6255317369046813,-10.778686608054029,-1.60981250694806,-0.1233671565681243,-3.321079955647508,2.1553126923224752,31.45798077449349,-6.8500948531519885,-8.399679770222738
-0.048,11.114756140571387,-2.9947291495668886,-1.3460316099393919,-34.6468364744657,-0.006570739727702753,3.1672340140520125,1.6077960532902233,1.2232168346408057,35.28000294459673,-11.09331537364608,-9.41469363256369
-0.04,0.8121298544457658,-14.018985299334757,-4.3304284844808425,-28.230020303063366,3.200445935970417,-6.551751595231048,-11.316990258502063,-2.2426399745019974,27.89305625482183,-18.245446602817395,0.5999960011597102
-0.032,-4.299865259486218,-12.112261666902548,-4.970051669102552,-12.14678719295879,2.6191871814696825,-12.38264141694442,-18.80070600857361,-5.026630265448351,26.397907343059615,-18.0277448907366,7.226524660330262
-0.024,2.2091525465985766,-9.959598677062477,-2.13330836335378,-33.904970991971446,-0.34052308495892236,-2.508256663900776,-4.912590402969308,-1.3742502469862377,33.06360665897486,-11.375757666421267,1.9778007157215536
-0.016,6.03843147237991,-4.788943307096745,-0.824873813957587,-47.91723198950376,-1.4604237275738223,-1.6780769577238954,-6.5747869059128385,1.4162234315383428,36.458498026750846,-3.303185465583167,-4.704081933492528
-0.008,5.025740788093483,3.5768995643455304,0.4966174112046247,-23.782433217334027,-2.5428943557884054,-8.54538828689506,-17.704698484330606,-3.031476125863657,34.43232984120994,1.0056905264552616,-4.167522661653955
0.0,8.978438640818087,0.4375084378279413,6.043198693511711,-16.809379984882856,-4.629700912470009,1.5775331815368627,-0.23996632942736473,-5.42424187674152,26.729887824014053,-7.793808688046234,0.6524299325602645
0.008,16.349110873546348,-9.038962610748639,7.274162868666368,-28.21867785131464,-3.75554989071489,8.876962920485706,10.923806311025425,-3.021344155587876,19.817591186525778,-21.588596935445693,1.7902608245487137
0.016,18.365674755516263,-9.351357500705108,1.7509540613800403,-15.336037962289817,-0.2178808318849982,-3.812752218728201,-10.774277867879427,-4.575986581161538,27.265669277712707,-23.95326701405736,-3.7793384284790723
0.024,17.847910570141714,-11.03274013453325,5.485729219810142,-10.581223283212903,0.7024910524534073,-2.1659879543913907,-9.673922471956777,-3.3771655905279414,38.340692029987586,-25.967851590079736,-7.455140792525486
0.032,24.3704330785105,-22.07159140873079,19.929113711421774,-31.338310875631915,-1.6211554180213317,17.91345244458109,18.353873498003416,11.329294924188957,32.200417842737146,-37.42083595654253,-3.1180112244884626
0.04,34.41402736148967,-28.97345337124647,25.730823018908676,-25.941463242371785,-3.6074508825143634,15.973680467153512,10.393566006224845,24.367049220451513,20.430041797835106,-38.771873227215444,2.6340258180775655
0.048,31.749343971349216,-35.30132961163907,19.037342212691136,-6.728631640783902,-2.9788841235630885,-1.350520441303466,-16.11110804260501,19.61370401445939,21.177181861247917,-27.817558501734656,6.960565664475629
0.056,12.484581350597203,-52.09134496901973,11.329420574595105,-20.2505537198575,1.7584784829578077,-0.7876088332306483,-7.9742884756578905,9.927866442975148,26.469359712568362,-24.41061380905624,10.517588536842915
0.064,-1.0265965151711343,-63.72529822040916,5.967540160731425,-25.969566710250405,7.848835426037192,4.021194599612033,3.673944908375313,9.59458235080582,30.547641247666977,-21.27570530127987,5.545948307095351
0.072,10.367721039760056,-63.725864117223665,4.825652035766122,-0.019463510367087527,6.890166130386577,-3.4992943646735246,-11.695790286626035,12.100193036326942,37.238491950614275,-7.261166104504487,-2.5296835627921035
0.08,28.239406453591627,-69.68049211198984,9.441671589233295,-1.337796107808429,-0.8744486131070613,-4.055680157050408,-15.405900983548202,12.267262422581481,35.95488509478463,-1.99189267369179,5.2930460333705485
0.088,27.528669763104016,-75.48431400102416,11.091538165905447,-28.42374601115801,-3.6208166908890598,6.498466183971674,3.913547222522292,15.644336273068685,22.808082312148002,-12.023503151558124,18.272188446337797
0.096,20.594730692465088,-64.52324743093041,7.457026208676771,-22.976994078831112,0.65491844467224,9.47542097035001,9.802794426969303,20.68967384850784,20.075830002838963,-15.662561145711807,11.232447532956865
0.104,20.933845250514718,-52.377856733206734,6.399574698309933,-5.392876960857644,2.308973575276906,3.174643576992887,-2.210618582779707,17.71279539664149,34.040783400534835,-10.197918017990665,-0.7282523191548814
0.112,14.251401982685003,-51.71635210961273,5.021015359933313,-14.754882496124404,1.5239415018695488,-2.9142131716053297,-9.658723429849601,7.665992686769157,36.075670996724405,-14.363279143357948,6.335092709806971
0.12,7.424826664543714,-49.68165583836836,0.43922449379013156,-21.560521961839843,4.121937525110754,-3.7960490658907218,-7.215538662862411,3.827586706954392,15.817620658838232,-31.008573299778675,14.50408533989556
0.128,20.34462526765346,-46.811948143473685,1.296529688924237,-15.073439257249909,5.4629345929577955,2.993521768538212,1.384268666138247,8.945261000408177,3.960704039392296,-43.12610785681067,7.8922733586981515
0.136,27.171561831155284,-51.28752751967752,4.582228188343442,-27.634022792248782,2.7545022489578743,9.646166743797469,10.561364582349153,9.49578102167898,15.401209337085549,-39.90727132101971,5.533054137053372
0.144,7.582041858585078,-51.51609943350246,1.4895219341452484,-49.75017978154673,3.7512013049744812,7.508144065397043,11.617552505160985,2.6447692132593597,21.859042277282423,-35.32518461552477,11.756654053224826
0.152,-1.1721376010822888,-42.09832873262943,0.3354600151126375,-49.63396656506192,8.949833067798632,2.8782858185430187,3.913346036152399,1.7330429489413464,8.323246744798663,-46.44767661438983,8.326649154530065
0.16,15.820679111459055,-33.42022028446253,4.590263601902847,-34.441919910670066,9.222028238755133,-0.7513343202152856,-8.183751110258498,6.5663982300129184,-0.09337408645598244,-59.27690369541715,1.2527698770771698
0.168,24.409199457298406,-27.65004846941521,5.648127532734657,-25.9784186384974,3.6024272919799847,-4.651725573304064,-15.137206347534093,4.9231830242671775,7.32483694273364,-56.02729405749527,6.837967193146552
0.176,19.748323301445335,-25.424824264393013,10.162970341570684,-28.728786992858332,-1.3488852422020634,2.1999450202291233,-1.2988691127536323,1.8735887028724245,7.84004797605961,-53.70684285676932,17.526773413712288
0.184,20.495519764947797,-29.011646195754402,21.742817017921297,-29.25224282973177,-3.1275931877212226,16.48052182128529,20.5183085405375,7.2075383129217405,-2.239311047065336,-64.73832616625184,23.40929052496978
0.192,21.230769862571368,-29.05063113548982,22.01827042660481,-16.360539850951653,-2.0162796847309092,14.273362539041303,16.176761960815863,11.41330707317851,-1.105993150687104,-68.16895876989469,23.54374859464727
0.2,18.2308086388662,-24.15419562300974,11.722903047367565,-10.744063249504821,1.0786465803609815,3.193477200068747,-0.4990255694750541,7.942311214790239,8.53225890334359,-57.929139925678456,14.96931849986378
0.208,15.230443760060018,-25.20045111746898,12.271735307800073,-25.56713557404043,2.55788839173116,8.568328477208313,7.964790329603082,6.555830947905645,7.902931235624885,-53.13558890576161,8.330404064743258
0.216,5.025736876478005,-25.36852105081574,16.93656817011477,-24.701010418604653,1.5869950229402852,13.483995401019587,17.920568721269134,7.239847618771961,6.849795753609936,-54.819201899307586,16.331931626559445
0.224,-3.4247231083768908,-15.836062442904304,8.7831721663274,0.21458751335022563,2.8869585861127622,-1.6971832810324496,-3.0803071644973423,1.9037757324807656,17.642137490940293,-54.900951498680605,20.32107471830543
0.232,5.124278319825603,-10.79793950059492,1.66601442946823,0.9626354244106057,6.720816741116851,-9.297789490995438,-17.34533760655826,-1.8338690211435904,20.247363537435394,-58.71073967751673,6.782561487859639
0.24,13.228817577480532,-15.049663061599466,7.928157640893398,-23.981146426258704,6.80319582000206,5.531374483346236,3.4206132451929756,2.108606087502661,8.386282609317263,-63.55611026602321,0.016322149598765833
0.248,7.339054756496148,-14.50644525888483,12.152950708303317,-34.041983539885955,3.2906478149431395,14.48120073055989,20.245420420530237,2.028745332794154,10.001234965602109,-63.37790480141572,8.832125814346407
0.256,5.09565423999571,-10.820672415012744,6.724455470355089,-40.21432770802513,2.9432937751476023,9.140781866401902,13.848204362833487,-3.2458857056357058,25.966139070908014,-68.53858131280342,11.367048373358086
0.264,9.350748772285694,-12.385427517503025,3.844055027919023,-57.8848921419772,5.186276246234141,7.758738978317873,9.836719054196202,-0.5495466464680522,27.674054314642184,-77.38914820843132,7.5072955752699055
0.272,5.653589541264563,-10.523287008884786,6.796854080845162,-55.509992910336415,4.595385026441266,8.51962717949688,10.110718795524345,5.5767989887891,20.209527230203715,-70.80571046121317,9.580422454993784
0.28,-0.1017411181038061,-1.4223536954038987,7.700133619775979,-34.07464465576562,2.4029746267835628,3.4879029492025584,2.762263476615144,3.8004106892280247,25.08767402652155,-55.06035308308609,10.026905396678185
0.288,1.9520590540026725,3.286234939543394,6.150187721263669,-27.72335356135036,1.2798335975687756,0.42229354238070305,-2.3821912022251013,4.36869797411734,32.56636820584016,-52.45556860440062,9.431702603771047
0.296,5.991128974324832,0.2382672453432529,7.256227207825606,-26.89432852491678,-0.7845352991358404,1.1292089413648922,-2.1692130179846396,15.449426073526288,35.20293845328731,-58.37502784825861,18.1276197783557
0.304,7.326722829406831,-3.1619685735857823,10.497665145452574,-20.57828469910834,-3.80730077305276,2.2749442190378955,-0.8935099099243798,22.425774317555973,46.74365640557628,-56.876950174348245,25.051199802224406
0.312,5.448298695826298,-6.15151160297834,12.526253863549561,-32.909205491490596,-5.41021594166072,7.396416303837589,8.16105400233608,17.418014659645557,57.97801432706638,-52.05359001923103,23.814974362723234
0.32,2.8854582888353226,-12.267772910853981,14.223952215408614,-51.905569678352634,-5.643936108751609,10.969393058167089,15.097135727590375,11.628426476692972,45.639339378292995,-55.66378944060288,28.041369818700506
0.328,7.829571533437722,-13.853950811703205,16.755913314243635,-43.99415378321459,-3.940240131243976,5.425264649824186,4.054390520181349,9.366268709701462,20.67433192612368,-67.47770392592548,30.363157234785486
0.336,16.473834728976577,-0.3200695610792515,17.297261058409774,-28.218728703557353,-0.44227371487156814,1.8586415128317655,-5.207892121984977,4.89599924004539,6.7650802941524075,-76.49261442900011,16.388626960668006
0.344,17.270782722150184,16.376855412632533,15.49723651424719,-26.807761192105247,0.12497741351520089,7.3703593037928385,4.575013081258432,0.14149481327689759,-0.2985679167391956,-76.12009141879699,6.980134302980444
0.352,12.857791696890187,17.840761260213768,12.802709529803622,-21.304794891378886,-1.3832283619853742,8.639422012403902,10.52668012269352,-1.7646451136727497,-6.784124306959079,-75.83557700286504,15.195163668349743
0.36,3.5865681334774266,13.27454346297194,4.1561335830485895,-13.093206950328714,4.414242879356764,-1.1639687882293388,-2.133799678431893,-7.434662806125106,0.5920840017716509,-81.04434947242777,13.173773224603591
0.368,-11.005345067762528,9.404505794374002,-10.083042934879602,-21.234368017424362,15.559746428209591,-10.400935211433724,-14.176414965611738,-16.40718711827283,12.641425764042836,-74.8800682383683,-6.318118422042866
0.376,-8.77562422807701,-6.476398337523987,-15.464987224793981,-32.72736847806642,15.984310573030928,-8.035582824226314,-9.456795581098241,-12.985481772402121,-0.8493005423090519,-53.216328784402805,-9.11071867319839
0.384,9.306288352520516,-9.331086988464211,-9.829981916643115,-33.83094017031368,2.724161983938194,0.621716774830495,3.2340839823898637,4.720539660794673,-11.982602748472958,-40.56829129340409,12.692927227768795
0.392,6.499232276522059,29.148230678354484,-8.100172013306247,-25.26815863510546,-8.701477370010684,0.1362353237819268,3.3910517898873422,16.436468687371054,37.86286033981744,-39.00118771690535,25.872848430122406
0.4,-5.394697044210818,45.49343362317088,-7.430328741100188,8.1417169977926,-9.456266296240313,-9.082183579568351,-11.771895885143664,17.441958900124877,107.04861210374783,-27.29779871006697,17.701443508515712
0.408,10.945177045927576,-19.40607238985355,4.280403049114102,58.0347310931339,-3.5787219651711584,-10.502767855415671,-20.766935004388973,22.492008053483804,106.61741534619168,-14.378337153282429,9.561631485989482
0.416,26.02151363242843,-99.89042676769012,13.565906287811599,74.23011662913297,4.311513452465646,-4.637699230066651,-16.096264079293917,27.918716926014742,69.99630259433273,-5.022601476387068,7.215052202448244
0.424,13.894308916948123,-131.31469884217495,7.256972496202552,50.73396081647751,8.672719032388322,-3.7169351030803246,-12.474199451603688,22.19909206676765,78.42564593928584,37.47028458703912,-6.1994185413452785
0.432,12.963083749496818,-143.82622518552236,-0.20218046239610057,35.400536920428436,3.543129955735691,-3.1531708953770434,-10.545134167696956,17.280180186949465,96.58813079736431,112.72303875415764,-23.45961529932331
0.44,24.98477574911646,-145.6715571413872,-1.3265979181705234,33.535342976615496,-9.659649007932591,0.8749723805016141,-3.4181509383928015,21.693761258927548,65.65749816939838,174.57931881014483,-17.0494393667804
0.448,13.719287582029741,-105.86169776353056,-6.191485339899531,12.96905929274366,-25.104721674641574,1.063910696971453,3.566988527313106,21.781862047825687,19.23499265738352,219.30734363384718,6.146204477040384
0.456,-0.5793653171722164,-47.75971387823924,-10.100397823119694,-13.05637186941614,-34.68508811972324,3.3404888784347637,12.5277760234808,13.98812168510009,-14.984871349326847,238.07942515395757,14.66438077964863
0.464,3.305486996959272,-4.134891344330239,-3.221847976317844,-7.701384562815757,-27.274039692273657,11.63141938856737,23.64609220121999,5.245513764212624,-60.44028698376852,169.9504332573153,6.588423294217141
0.472,-5.0262805662889,38.43360064489953,3.9534146412221314,21.684901734603415,-3.880368100671527,9.227339658739393,17.05396294699747,-9.935364360148185,-106.24132337028472,39.629855451028725,-6.229249273632284
0.48,-26.739669868336833,83.56652304005853,0.7135796551441089,43.43146872166551,17.910201537046206,-4.0720622197335485,-4.51690343363576,-31.249735536575432,-126.91632274395575,-38.09795111468116,-29.91664060628004
0.488,-32.076131562212005,121.1030469433692,-6.630086858291965,46.93196551049972,26.668272023744336,-6.221006651610759,-7.560645825412299,-46.00695683618626,-144.99725657398986,-52.7697554532106,-55.69086233568595
0.496,-26.617258077514588,162.35901844728215,-11.469310763496416,40.28426984734123,25.066687035428615,2.494438722957463,9.852823415484213,-55.26417768754352,-178.14128377921844,-76.07307234528102,-57.894276343854344
