time,C3,C4,Cz,FC1,FC2,FC5,FC6,CP1,CP2,CP5,CP6
-0.2,-13.336066058159336,203.972089545224,-11.15083271619458,23.654961358821094,-23.61515819567284,-14.332927740515702,-15.061940757443974,-24.536903593382522,-80.00646677366079,13.34538601443135,6.807659837021186
-0.192,-12.309956425522412,201.80503460362732,-15.225093667799728,32.51243746745685,-21.133835473437763,-16.550603466258643,-18.766729096443683,-23.185297088468978,-51.206312426061025,12.53592599024876,-1.3337509096118183
-0.184,-5.051296905485352,196.49691968470674,-10.21317020319834,35.26995562979489,-17.43699180305471,-12.906702867499511,-17.642553394847273,-15.802291286288238,-42.038254361546834,-1.9386101761716021,-10.282788025209836
-0.176,1.1315614459761598,176.49174865075886,-2.663081878490934,35.01834633364772,-16.58423362430192,-6.540678217862996,-10.116256589205635,-9.527275215115193,-48.837157717782404,-10.714735803251429,-6.9852147964771305
-0.168,-9.16305747048406,159.83919408461534,-7.1745032387481915,38.962171314020765,-9.240375768229654,-7.668662696889065,-10.49878712009729,-9.195138743415686,-39.98292363248344,-4.292750561470146,-16.072892133609784
-0.16,-18.21461602100453,149.29030232503297,-13.561765097572547,40.295885946436115,0.33903700903278394,-13.636641629310862,-20.254810687580587,-9.13628008175568,-31.8509223045127,-4.582463597292368,-29.73772487034352
-0.152,-3.6800457235628605,123.72195208840418,-7.107232389763799,33.8754359134563,-3.403082215451294,-10.324650252111034,-16.993662894742204,-4.96948733288279,-45.595246242255996,-14.572142775802622,-15.254134957980845
-0.144,2.3914449612931272,96.13952877500928,-2.9263203286789707,31.162052523127567,-8.89743910457077,-6.459908678765137,-8.914177296245187,-4.153449211999433,-47.24386911277813,-14.482982598206668,4.270424899114326
-0.136,-21.757986422311024,90.25220878300676,-13.810987697528422,37.603024714502844,-0.4622299114418727,-16.579497244994545,-19.80670629759064,-10.681850871895914,-21.915834907713883,-8.40088347531688,-1.8716361363736675
-0.128,-30.276596391838485,81.91914202221356,-22.31573425926843,30.01764890700851,5.659940227839382,-21.895849450366043,-26.00081594736225,-14.172149092768489,-11.036737699716777,-10.535809433073027,-7.51773385001351
-0.12,-4.994370829575539,47.92234821992149,-15.978671680427723,-5.161393243157052,-0.3871094040410293,-6.832270533204409,-4.473097205116153,-9.837024164662534,-23.113251262365374,-16.93049016316606,2.5721095735389867
-0.112,7.970075546151969,12.720440017977932,-4.6160548343203756,-32.820391207517545,-1.5817335797853762,7.129200028183407,14.20304139278412,-6.619823300845012,-24.241635375739925,-28.12572655400732,7.0508373645428275
-0.104,-1.5376727815334656,-1.4586707279804385,3.32039205391058,-26.026308569812645,4.538443940602319,5.752654464798807,10.126954800818877,-6.832812244772345,-18.817888326252138,-47.307850348901795,7.610846041037384
-0.096,-2.61513158650753,-2.6356066899887787,5.684379189001955,-20.994691902021152,4.7197133079064395,2.5174883092495772,4.578468276157154,-5.515555577852251,-28.74849400772977,-57.23938738044578,15.067938393618268
-0.088,0.29286749318478267,-4.098463155733005,3.1621354653764104,-44.82776546822601,2.266644318745303,3.554447953391933,6.3684024387881335,-4.997185725697367,-36.636191433697626,-49.45108208652366,17.478566374933475
-0.08,-8.024240236571437,-14.712514432769268,4.336575945955162,-56.00294318640419,5.293502185300413,3.8719713085699508,6.263185143971323,-5.377273121079832,-25.911810229964154,-40.737698565231746,11.743127619759173
-0.072,-12.355057625030177,-35.8612408623818,12.016208066726815,-31.303969677750086,9.301139194232867,5.997224834151981,7.202873306354682,0.15318861954526897,-9.015724185422465,-34.9451665462842,5.8008764311027985
-0.064,-3.362751299321386,-66.73426658444774,14.975310602705665,-19.977490873691178,10.760826445406817,11.54804669406308,13.517379662558495,8.059722795756178,4.9469927702506675,-21.357176808895552,-0.9126893399374428
-0.056,8.741175935004595,-109.53955649501142,8.83945257083923,-47.598417921402486,11.547689680169183,14.03456250063883,17.342919702715704,9.624289244899128,9.37173258873367,-5.55093923496307,-2.657171329463234
-0.048,15.145921943142374,-139.15211154927715,1.7441269591912856,-71.70828969996649,10.867443687294632,10.7952719955653,13.695843971494803,8.74689854423889,5.436882930931987,3.561520541565693,4.418967689835082
-0.04,10.982588517714339,-124.38960409545463,0.4200948299620094,-64.02359765374547,6.699772974097032,8.752702375010442,11.704756252882357,12.645141652536802,29.4003520865284,11.113779334300844,8.376090349308171
-0.032,8.910278383288773,-106.61982281603298,10.265300020428585,-35.52365409836125,-1.0760889804412415,14.617011248206026,19.463836221662735,21.99240780813297,92.67342245326418,22.267354616206173,8.242944578886444
-0.024,27.440439719072085,-148.4634342575438,27.300152256083322,1.787489556087873,-6.976427828981525,22.102388569693318,25.35584371439651,33.07217153916197,132.8655187905341,38.84422901207988,10.778926944300192
-0.016,40.70252325546358,-221.55146477378122,28.92776389060661,28.96840835696722,-0.3511451834117021,18.150744843578625,16.10962124900322,33.90548805369466,116.81147624303014,62.080811584888636,5.568222314501762
-0.008,19.030883334328152,-269.11527950264815,8.94069753924416,36.668985367072736,16.50124668010553,5.143629005618419,2.5269313630620163,20.675295116019313,96.35795187058105,88.44661530039996,-9.030763905378459
0.0,3.939085242287679,-296.23887285744826,-3.1891413980397423,50.17211011365515,22.650451422089027,-0.2389513529417256,0.06947979002475844,15.665193278897101,98.3343902658293,118.97027371488265,-14.13103815710088
0.008,30.831637564275155,-305.41141139358,5.689154787543528,68.11490532764901,9.106160463721404,6.699480777868344,6.316937069255544,29.268304122965414,89.79886005234792,155.29327876716533,-7.072554110387368
0.016,51.37650285130378,-274.48936733040597,9.91716780092874,55.58828522028913,-4.998004879984803,12.719440387399631,12.58301035655435,35.07449166619461,63.77336136750341,177.07844977736582,-1.9349871828548066
0.024,35.27510678157092,-229.53414252163734,-1.5228438974148644,34.097898032011436,-1.8285537886395966,8.856228838242217,12.535675833080862,20.901151274561887,35.20873560195571,156.37684104457202,-2.4950603294364613
0.032,21.32517677602769,-212.50946179958456,-9.430041235872633,46.10355454463267,14.292145611897668,2.165856963842545,5.920526827409658,7.226316573844459,-6.518080446813932,92.95259345997438,-6.570104196431909
0.04,16.229892429254086,-212.97884943748244,-8.12054416293081,62.40002471708526,33.73285051360661,0.9480820755108572,3.4489960210856405,-2.465725714960786,-58.68273407433769,13.751141124285251,-13.94533030823915
0.048,-6.749929246062807,-205.83652308782305,-10.497889056543542,52.446760254283134,52.807163342425916,1.8537437263205487,8.536802505631332,-20.87497330464721,-92.83302968971664,-49.133904497723904,-24.35241470546959
0.056,-29.07343639053578,-177.77833322914265,-19.83439194195932,46.976356182959,65.27008089976692,-0.5026434051248,9.964334729215356,-39.39310897233219,-109.92187739565857,-76.79451178391353,-40.02192195084617
0.064,-31.13764688365581,-109.75234164192827,-30.75073941577892,56.32893233584188,63.80959711879913,-3.4265798619842283,8.117575279769303,-48.78017462296193,-134.12286573245078,-76.20474008912394,-53.94127445176164
0.072,-35.05195203351455,-10.8005898533006,-40.45567485614707,53.728931144803965,50.11867921115282,-3.1150817772368256,15.248400871754033,-58.54842797755161,-165.62479517396926,-71.39945849881313,-47.16198708589924
0.08,-44.61918262408936,71.25271822382007,-46.11428298660434,46.00894119269794,33.96573421386576,-0.7210900815246383,28.147318771160126,-66.4912222214783,-186.2228727380151,-75.89725617664433,-22.50731634854083
0.088,-42.2582133619244,110.38370510852339,-44.856877895632564,56.23816414346938,23.896053446396888,1.5296055848127041,33.42506117527073,-59.33427250673602,-182.2748413568247,-80.5269620571053,-8.14132348674293
0.096,-35.83215849930029,121.5375565898232,-38.071815996929644,76.62733433465993,20.676814059830406,2.177116398946867,29.34297855803281,-44.67917197241943,-157.7418941829772,-74.98246319394102,-12.15336075458726
0.104,-36.615699820173226,128.9934466055294,-32.2542110632421,94.84022939499731,21.00016250350656,-0.044317056785562685,21.71910177889345,-38.33851903466247,-141.63031236659089,-68.32547796902159,-19.950667161999167
0.112,-40.33486170941893,146.16632262162472,-33.74716136797395,114.30099502171745,24.375961651541413,-4.3954652349617875,13.390340307131051,-38.40820762940196,-146.45991122212487,-62.79010528309084,-32.29798430552046
0.12,-47.57235945083568,157.23572716026183,-39.68760953086655,130.74173108299792,28.883702526434636,-7.4645891685091765,7.896207763852411,-38.423107123973544,-138.62923312269234,-32.63824492104758,-55.22917060283009
0.128,-53.488886218382724,132.00015024830384,-42.36462020948552,130.36907607941356,29.68372288250495,-7.025493745158679,8.05524415428122,-39.20547962192921,-111.96951825887304,25.509189587769477,-74.0357713056837
0.136,-48.35979789683793,79.94707155556321,-43.0475328089532,117.58229308783797,30.44965570545065,-7.917597684360797,5.246992187021125,-38.56827470579626,-120.67124114265489,65.45802689418251,-76.75935535337702
0.144,-47.5252990641404,41.955521953279806,-47.24760578344986,115.41317369987149,39.33392597576079,-17.44667233595074,-11.131621543284796,-34.00071382268797,-173.7741003306103,60.10381169408352,-71.40315628343467
0.152,-65.41552760015303,35.53253874389091,-51.75739224889089,127.35650534203292,51.104594597270456,-31.05615448931142,-31.464191129331073,-31.069732868918415,-212.17149992173947,33.761172185169585,-64.47814090754491
0.16,-77.69078115118202,59.67148801577962,-50.2075829162642,128.08019931694162,53.61795817785201,-35.443413287728454,-37.36570390414138,-32.55680264954083,-224.34091596749647,4.698604232381773,-56.809232771085874
0.168,-67.72355366213138,114.84134889669608,-44.56143492560497,107.31719066242077,47.32729972805502,-29.679649425499814,-30.968707245863612,-34.075135054674476,-244.67449708059056,-29.149093152126273,-53.81534520051015
0.176,-65.48092802576359,185.0432343166195,-43.04132997982419,84.71660448252256,41.88111688778358,-26.36932044990568,-27.039150151735754,-37.329171822571965,-263.4732279346497,-57.00471560206278,-55.02423793344595
0.184,-86.06153182455205,244.9422434690295,-47.90058384888748,70.2871344500263,39.62879361361653,-29.020063333888068,-26.09295440801346,-46.02182772169756,-269.466430796551,-72.82926238906131,-49.96831815420323
0.192,-94.2537315498574,285.78108756272746,-52.07552666034214,54.36031931366606,34.157245697303885,-28.350365468227373,-19.45246911743678,-53.74519648409979,-291.3827568569199,-88.96589593984996,-35.31092490821584
0.2,-78.34327401037096,309.7671928373361,-53.41324834978627,36.22845336755897,25.497113035940398,-24.076617360882604,-11.620692700926853,-56.990092529892465,-320.74097174957734,-101.81983883166605,-23.17240927758855
0.208,-74.46033624674033,323.57774791201547,-55.90248181745299,22.530954404470112,23.10143463104778,-25.45596612576499,-14.089611148550421,-60.5937746705155,-324.7423696281804,-101.11087617393956,-24.652816323634028
0.216,-85.15074797291263,336.33824307391245,-53.55283840298126,13.280347652111196,25.248146451924114,-29.95566040370312,-22.88018627256378,-61.76092810941551,-328.65893553814954,-101.04922842444043,-28.233699511060728
0.224,-79.0231683120814,343.1893784195888,-43.02248554782065,15.911594061184749,20.005523835480158,-30.9768437657112,-28.053929885863973,-59.434050040624086,-358.227272114463,-105.17269350242117,-16.67611935213934
0.232,-70.60100363196945,335.3984500165656,-40.48110053763052,38.18180722242793,14.092408862782207,-35.8779218899494,-34.91047530577392,-66.35716060422574,-383.58656646823835,-92.6159267619186,-4.577357497420557
0.24,-84.77659421740616,324.8286719941614,-50.15748783423984,58.674931569325835,20.79720606788797,-45.72944752597012,-46.02188997107031,-80.42358367146667,-390.05768321594394,-70.63195930944741,-14.572352706401782
0.248,-86.89459567167937,321.812188333443,-49.00617708916555,55.61213821127991,25.36634550381045,-44.19423428893373,-46.29652594101796,-78.36487741656113,-389.031356602008,-63.73447338527004,-28.576938835335753
0.256,-54.00579092814421,312.02269322938804,-31.546797265471767,51.63761997246724,12.752784166656884,-30.968594779989726,-34.33857979750694,-59.31958722084547,-375.53438099043615,-63.030962915723514,-20.162045575593606
0.264,-33.21328246386662,288.306646822465,-23.00838109017541,71.90889967045172,2.8760432466746124,-28.11755029903907,-32.32280442403792,-50.038933244761765,-359.6436679367374,-56.212336974109014,-3.764903381814319
0.272,-51.6568988985752,269.5472456822268,-33.37372337905915,93.98597306450193,10.493081213804366,-41.33438240813072,-47.55058776577056,-58.2717300964811,-354.2715540756673,-50.99937269248421,-1.7586225041424488
0.28,-65.18301880704382,263.42067230352484,-43.0436212999473,91.29246306684672,15.212385793501074,-51.86757090374958,-61.94572678595151,-61.28172515348404,-330.09100658078825,-37.80845754862289,-7.888055808522279
0.288,-43.19027857083758,250.6325722785756,-37.326187298954814,78.01413503244643,4.908976505967466,-47.98071536150385,-62.94462466566742,-44.136230556444076,-284.290527152047,-5.980867840090665,-11.115474517629995
0.296,-18.33504577832444,224.72658283755786,-25.908742036920444,76.49247679096766,-3.5811864457993545,-39.01531894646966,-57.073192302694856,-23.53459509753603,-265.40700544182454,23.648810634577092,-12.730810381230187
0.304,-21.788337188185956,204.50481259051944,-24.56006756845511,79.79639970129116,-1.7837025281441026,-37.2338841286502,-53.772133542112265,-22.70488470356746,-271.7294775694496,36.490449188386016,-12.977833862403127
0.312,-33.77819447430702,194.28687594572335,-30.16318024311527,65.63165719177985,0.42144033671981507,-39.36138260868107,-51.8693918283674,-34.15769473029798,-262.3937365427382,32.70828218775641,-7.857492418374745
0.32,-28.231008693218207,181.16800205433017,-27.571379650250417,34.71794735438229,0.9736240551631911,-36.20448603293846,-47.974354119569085,-32.41207720450704,-247.99788712760025,-0.7005212327716033,1.4684265196817712
0.328,-18.51154010449437,172.68019447451482,-16.514643550311867,14.964353566490397,4.68212119172074,-29.731588298730525,-44.15023249156252,-18.088299860871782,-243.6014765317103,-52.60693292561483,7.269011439917057
0.336,-25.21461368597548,182.96989173587448,-9.447867654311949,12.863750742928987,7.043814651430558,-24.45520962524131,-37.33350207723499,-13.558239413923271,-221.22524205402365,-78.24771454372843,6.433952215846834
0.344,-37.19969316305436,196.02776770144504,-9.1817415095497,2.426212357666147,4.155600868990148,-18.9554002374216,-24.751725941824525,-22.42234708561779,-179.46384715831707,-74.49966442110629,4.814389122352748
0.352,-33.14422631328193,186.70435709603612,-9.034981656268677,-16.750035678047073,1.9311979269157702,-14.878030439781998,-17.620592343278023,-29.097124304269478,-150.68147940439852,-75.52318258723821,3.5879039173172442
0.36,-13.800500220201233,152.42558060714546,-4.5981055401227655,-20.641297954642507,1.4914175816493447,-11.488933272245683,-16.643252953771352,-26.331819975103144,-136.43847782063844,-75.19747077577053,0.10290555579599692
0.368,-0.05856923153688129,111.384364254747,1.981897846893318,-18.040752723954412,-2.5174589899424498,-2.7923688247962417,-5.134670026512908,-18.762608884010803,-118.64379447706763,-53.59175511427364,2.2122285185581925
0.376,-7.022826978557328,94.35589175409112,2.4229573988150155,-23.72263089329724,-6.561631422575676,3.808784943880136,8.922314146555527,-13.1153912486685,-96.14690211465916,-36.42598235180224,12.567961016232154
0.384,-18.727970097456577,113.44726836725098,-2.83124514679543,-17.66253554324592,-6.8527126162967615,-0.21918565363299863,6.13360140950352,-11.976350500201365,-74.45646437961543,-43.91119114871861,17.683100187620415
0.392,-10.658749230497504,135.12738949056975,0.48611085413641053,3.8299485495872583,-11.100347523794664,-1.3745468656475104,2.1991526577036264,-10.11190738631612,-54.62057335106877,-50.419024786921234,16.28065849204068
0.4,4.399160148539202,127.9863876588761,11.961554250492918,13.256615239008248,-18.585829994834864,6.907153207682116,11.236259219787438,-4.422396624465607,-28.689930668068186,-43.345470744502094,17.70295265711036
0.408,4.8811072067830965,99.9454072643949,15.563196865706104,6.823541675784737,-17.59717290238325,11.475849203813274,17.087456705093015,-0.20481692000046725,13.626871015628703,-38.25693034423186,14.28504509092278
0.416,7.425390677037203,55.99025900543518,13.468326294845342,-4.21457348105275,-12.713051763569277,13.587016300374215,19.291724599024896,2.3115356104319917,56.74990155905804,-28.480017673516144,4.439886238016758
0.424,20.82258205296897,-5.576456736676327,12.597739028943565,-19.014299034359805,-13.64253627614229,17.374020122402328,24.371502124346154,5.794529706472461,79.01047022254228,-2.600313216555974,5.292008171545029
0.432,17.810189177608358,-60.15998380199998,3.1524245854106274,-21.37563003804756,-9.902489085145863,9.798667872702394,15.874447038885728,4.029588693285236,101.59867441213837,17.985829662976027,9.696982860162315
0.44,3.890535136180904,-100.52504893868422,-6.622475202547713,-3.966140647176152,2.409036853439671,0.49965391404128773,3.7754560133342623,0.6267190407208656,150.22877539769655,22.110609885337713,-3.1078237095992045
0.448,18.911983036095613,-158.28694065071622,5.745683407398721,-0.12970852700757068,5.646659036262996,14.651058803514292,19.397604455309708,13.059935250492071,197.85834924899174,31.87268105166738,-17.423707343395517
0.456,51.05062419017283,-232.7472978993451,24.056267600058867,-16.943084295475416,-0.621809275897209,35.58752161503875,43.698198390764254,35.400711488379216,216.76226129309623,53.242896194230944,-13.958592816227265
0.464,53.590702088154615,-288.59875171911597,19.365969481176446,-14.639311324099252,3.194815186099652,34.97173468255076,43.97626099290902,41.82929702092688,231.77208585724378,70.45130093229824,-11.516687681120494
0.472,33.47782351964041,-327.56168536323906,4.8828739986400995,8.02032215751851,15.668757005115866,24.950307868315456,34.47725097614685,33.930264088587336,265.7208423806213,84.88849548845445,-22.197908382866224
0.48,33.146713420742536,-375.0714676044321,4.408698683367778,14.90673878304549,18.91835824784755,23.64424066931628,32.20677111116306,35.19249544376753,299.06815785293895,105.58803498512364,-26.429999667025225
0.488,54.236933117346965,-429.64905711451837,14.573832471276306,9.27979996111256,11.566821402531115,28.36770261567003,34.73147622461227,48.050806706683986,316.5118356484925,126.5343034642086,-14.017705691619973
0.496,63.4703959297096,-475.9961531153294,23.380847412601085,17.690694375506123,5.737219495665435,34.19793048751363,43.55113078655086,55.420219401523056,330.6534829984574,140.1340229532534,2.8329535599420237
