time,C3,C4,Cz,FC1,FC2,FC5,FC6,CP1,CP2,CP5,CP6
-0.2,39.82700111052629,-50.08517494573075,7.686219850352405,-94.34188111838844,-16.794002989166007,11.763821270660946,14.828763141160254,-0.5925937549053919,-16.716469307053792,-2.346025161019224,30.46935442557222
-0.192,49.65491634002283,-18.64143972480524,13.06812751663282,-67.59921922878647,-24.833068279172114,20.784631560218404,31.31965804510284,5.701828450487757,-34.06317053097223,-31.31232847004876,49.204285463066
-0.184,41.238711490857185,7.039221825648702,12.092997011846643,-42.31030959691258,-23.572514937406208,15.929192389541964,24.85934980649932,6.32234293952746,-32.12093646836974,-42.53234807857289,49.81461895477316
-0.176,22.23941871100877,20.9635807810548,7.82438067797473,-30.25904522896072,-12.655491594901793,3.413395534037353,3.713374965296735,1.5808731565396499,-2.438719344758933,-50.69121740433557,30.266994947840505
-0.168,28.1131280777126,20.158972340657506,12.825727878144594,-21.460592848976987,-7.972253223953886,2.6966720326538747,-3.622678023104008,7.589810809186345,31.172653462091002,-63.52958680767065,14.17732165715461
-0.16,34.04326286177134,15.473150395795656,17.963850894921222,-4.90872353775011,-9.890422592560766,7.000182767996225,0.02051857655631509,16.201631920356473,58.46074196292584,-49.90100390082343,6.742770879421819
-0.152,23.435368905651444,-6.301879917714212,13.501543764305397,9.837200861830482,-8.486411139579145,5.177743529049553,-0.9437597385868208,16.727940737969465,75.12060311757268,0.7396097120959203,-4.205772709993867
-0.144,25.70409822586924,-54.42791686793829,10.35327385788048,6.74980195168767,-7.6703860790231175,4.094054650775184,-3.6141117465971297,20.344451225153133,69.01891579708139,57.626085675388545,-12.452094105972236
-0.136,25.978125887677486,-95.59002865339795,8.637968651655054,-4.098739345025588,-8.986463412707254,3.1089325603188636,-5.056551233835029,25.19461933940067,50.47874002096619,101.8665495843765,-8.955002962279883
-0.128,0.12964484641484947,-98.47041941856227,-1.399346477158475,-2.4776853594588215,-4.678563289767909,-4.471766032029082,-10.788624768719895,18.874799285441558,42.247022368530345,132.11347036353192,-10.360839476700828
-0.12,-10.298628091392985,-73.28323160375088,-7.059524931032613,1.6734429303200788,1.9032423749492169,-8.858220917751188,-17.097543783331396,11.686572941157737,40.20458050244456,125.97783154768443,-26.431930676211856
-0.112,4.624291341018938,-45.676073366775164,0.6402661332272627,-8.974797663103168,5.551081005416744,-4.083399333035148,-16.090539074214774,9.979549144109315,32.61116172837112,73.56794106130639,-37.52928209463823
-0.104,-6.590685149373357,-30.085867239319313,2.0481397349945696,-19.453466001331112,13.006562701419416,-2.908025196720043,-11.861345027217517,-0.5003081954528953,23.77600556568037,17.67136800234297,-33.690042209867
-0.096,-34.19026405797271,-28.648019698909938,-9.043192046322986,-16.88333033964241,22.17859314064538,-8.662908851054366,-11.276513573255794,-15.626553408896768,12.9985056680745,-4.255711595654028,-27.001462454236684
-0.088,-31.47955231386828,-32.05494664718454,-13.566406823567558,-18.12360014650283,21.3082746275102,-9.927355070941516,-10.780045792488163,-18.455723027118744,-5.311191930906837,-5.370516857741671,-20.37725436915802
-0.08,-20.506337428858085,-25.354712692378197,-10.47904201812878,-20.733835093632933,14.846087764896899,-6.444828875210772,-5.638195447887885,-15.632990441603138,-29.286406173753264,-8.100120417653374,-8.78490999674858
-0.072,-28.097590359931186,-4.073182477581242,-13.103540609634356,0.28143671607453397,12.78084683394879,-5.778328807991637,0.72046713921337,-16.491763331888595,-57.40068198045889,-16.05268286801839,4.259992960731189
-0.064,-27.716181920169646,21.172564014942036,-15.713662013490108,28.331689948385318,9.676787679312481,-6.302350122084394,2.9713047783868562,-14.176345115810985,-74.42842738498118,-24.091931989554276,12.951463531458286
-0.056,-17.915771377661095,42.904144652007005,-10.194821354742128,30.494274974386617,3.5842344238932933,-5.60666614926183,0.25560681176379735,-11.29116802386272,-60.63358824046498,-23.727692354204674,11.029867355846962
-0.048,-25.543173598482806,63.41887733306582,-5.960060678578326,25.757979461472967,4.577082345917831,-5.343010464913029,-1.8981781791019325,-14.95194646371178,-41.432033292081336,-18.501331228036047,-2.832549785025924
-0.04,-35.55115320840326,78.85270031215012,-8.658506541562595,35.60029006156861,10.568856114578457,-3.87147624855108,1.5970425656632434,-16.10066467577598,-48.10262925277654,-23.95148490576283,-14.048508288851659
-0.032,-27.26951679390691,85.31805683060811,-12.144596142640005,35.100866865239325,9.577349784168844,-3.0302161963742678,2.9079456830485833,-12.035890944554788,-50.94554570675559,-33.44546426309435,-12.565348563613943
-0.024,-19.323466032491663,89.28800015071994,-12.62285839970822,23.131514785280352,2.786354985285199,-6.683649368516572,-3.691049774941637,-12.50678291476794,-27.42236383270224,-29.932254829410006,-5.831124502406957
-0.016,-16.326904327838403,80.74379737844033,-6.257614542312476,35.60790331175061,-1.828814518734252,-5.584189855345486,-2.5144057700517726,-9.981887842645548,-9.06512791560954,-27.617925558587995,3.0058199324775017
-0.008,-1.2750213719552967,41.194428838328896,7.516514524730594,60.90182863304015,-3.3089458929718023,5.583799358198739,11.12127365446506,5.036848652504465,5.011716758515563,-34.89509383823413,10.431416798049357
0.0,7.096278233774725,-3.8346015993709033,12.044162082212884,58.15699500743543,-1.6680158319985072,8.003965836329312,10.55823676617738,13.10334953916127,48.266644409391326,-19.30813541830437,2.712215289314064
0.008,-9.437035906497663,-18.185159544956413,-0.813667173566265,38.03091704722601,2.2421128297329496,-6.54762380277774,-10.586125244789205,3.52194098198845,93.00109365606362,21.365384294990964,-12.452667990516275
0.016,-10.93783327223529,-26.168955876547543,-5.2554340914468565,28.005304939785333,0.6919518145681264,-13.081959230636423,-20.88772258413115,4.33503988737664,89.8614641850757,44.633324921404636,-11.286832825337283
0.024,21.19617226572428,-58.43604667644474,12.63262184509592,17.287482495029053,-9.057243772074763,-0.3162244602080862,-10.524784029564398,25.93690067834127,61.57825449499481,60.79207851970864,-1.8044713442353575
0.032,32.79566437564795,-82.76059384565595,25.064688698362634,-4.249085006789513,-15.52311863520438,8.922588117557064,-2.5963121791987405,34.405484144092554,57.85524243497698,102.24442639844641,-7.075136054372918
0.04,8.01440122750696,-70.69556922475523,18.509110941519662,-22.247997427324997,-10.012737107884368,5.463491310660692,-3.6234147480254304,19.04577237106936,69.54828358652405,113.41159165277202,-18.75175263331428
0.048,-2.7058625014166786,-49.326461082395085,12.556317345562801,-31.84061456316336,0.14563463193205628,3.256260887680048,-3.328822534678772,9.189169713081977,60.03511325041343,47.52326697494975,-16.49448610562334
0.056,0.983144732191482,-38.834971288916805,8.035531390584229,-41.85468204825714,5.91856715543482,1.085285657284589,-4.983406981767141,7.2784487384320915,43.70801522157456,-18.953011063595348,-4.916386549567633
0.064,-10.31957545364286,-30.308846377072665,-3.707925437211364,-52.25571032867012,8.02621077498642,-7.056380127147594,-12.091234652201193,-4.793184188085906,57.638244603466,-26.880924616886183,-2.1438794999479356
0.072,-6.5647640498116875,-31.848997322195537,-3.873137676857716,-53.32772143485615,7.636592183506963,-7.961255396116943,-14.38578224778111,-9.742079636791345,79.65107913446644,-25.398166363229667,-8.35958361525719
0.08,21.49157618235323,-55.49177590851113,12.136455326432973,-39.75332412931539,4.057725785404769,0.40218142512829164,-10.081452066278668,5.65244882763244,65.93968077959869,-36.03856099718608,-4.895026408848159
0.088,23.965819304133348,-80.6861126666272,17.97063231362715,-24.7808392970087,1.833920965444396,2.5614718268076473,-6.292531946420714,12.102881940037975,32.01341424739252,-27.281141627605802,10.707436670978923
0.096,7.693189732519953,-82.91194102836224,12.699193651919797,-28.313616419878965,3.0237792975229483,3.925737175270796,2.797931529698653,2.7814652430392726,11.634503711646904,-17.35979258371,17.33301870203461
0.104,15.763518633729706,-62.96117052407363,14.291504891489303,-39.53194832183766,1.416433671378253,12.979395190074404,15.662217412282459,6.531472789116942,7.557472320241938,-30.153221026194764,12.43138281797686
0.112,26.003800198248353,-31.920157912364967,15.287165833070167,-29.86332242919959,-4.259341652692597,10.590378143866236,8.440802279004032,18.050279292261475,22.09283403197407,-36.86324772169872,13.72722681645431
0.12,16.692476442560807,-5.1733291541980035,9.7482884154249,-9.469791489946981,-7.087882735571714,-5.305747047803829,-15.178989404033356,13.775633264101275,47.93855929661673,-29.635586745743275,16.57238852302812
0.128,15.126890105489945,-2.5321691616144735,10.471412508560112,-10.979107520733718,-5.122113278327598,-5.5738561328303895,-16.179431343341598,6.542316412172087,54.2879958265688,-30.054178617744327,8.162018545652142
0.136,23.669661902755237,-25.132280149760874,16.48764428018753,-26.85990617765154,-2.889391769128016,9.996291735896326,6.476388543953675,10.111550966855987,37.93419961324716,-30.445625796607164,1.240584277706026
0.144,26.37013106850469,-47.558490373996364,19.345991000176905,-28.974038686085997,-3.222675045821355,15.422756562573463,15.44280259084915,12.071924726165257,21.092608398989537,-22.046852642248517,5.759345364027157
0.152,27.714864722221215,-45.759360268161664,20.24665392484351,-21.25372741803518,-5.950805398649097,10.441686921697736,7.310618897751421,10.082299120816709,12.921904119946323,-14.90501044897011,10.746288357797011
0.16,21.14182183267682,-22.02010980695931,15.34073204249128,-20.830777451553576,-9.264520531109259,5.783638817617683,1.8399523152784962,9.989157932715512,26.308502505267125,-4.89099718148556,11.655221777216413
0.168,5.606462973342424,0.8529009910147652,5.042708249002321,-30.040857324292244,-9.675749926591541,0.1752849923666234,-2.4266060885040384,4.596095728307226,58.40453273143849,5.493938158475083,8.057278898359
0.176,3.326529825849088,7.261070144704827,2.003675976939716,-47.34066303260644,-4.33181997741863,-0.47002442915741277,-4.431306284716524,-4.034840950735451,66.2114509601138,-2.7639196059211435,-7.264545174261033
0.184,9.705890622802269,-0.13124705723196806,5.888732839358319,-64.20101302804191,3.1072087234288936,9.33349325433567,6.829840155158767,-0.2513915890154801,42.902896930469026,-18.91823084564655,-22.501179952848666
0.192,12.210573112400208,-18.878124038943483,10.432643988747957,-69.52748886108466,2.673001733329998,19.840933422220797,22.914386268644115,15.82363028375791,31.102674587780907,-20.880783463117154,-13.627133726355066
0.2,24.795342501099526,-44.336379436027784,18.598685952852314,-73.68069399688613,-5.852820630734817,24.40924398389222,28.86074948940173,27.62034563494212,29.955551563825065,-20.600041416797975,9.876326571445677
0.208,35.6013468823825,-52.11216411630693,21.00432179636812,-82.68914097416078,-8.394866966690671,21.21552745666624,21.769094546473145,24.81149175937648,16.50463920877781,-28.431777324285424,16.92621521426969
0.216,22.48562572015426,-30.8184463114826,10.17154047208905,-76.01163230073806,-2.6398874854074843,8.900680259385865,5.079974819806438,13.590322604809126,15.338822303228731,-28.78187585959789,6.836354649765187
0.224,11.622513045995053,-9.59780964446195,6.920487557301424,-55.271643127307776,-3.1093776248164238,1.496293102253538,-4.614246955611843,7.656355461417323,36.88684001998716,-18.794558553318833,2.312729056589649
0.232,20.33614564606777,-9.511774042412174,18.837768042734925,-47.959091465215685,-10.023451695087958,9.24913696580915,4.811908037165057,9.076212088331943,43.45541365468926,-11.349327081876865,5.482998609829904
0.24,25.41720656066021,-16.47597575411433,22.50064862697572,-49.10490779526326,-10.290008003982221,14.13977033950433,11.202764114214805,8.71302792122431,27.161653830850224,-5.74333831032427,2.708024925279532
0.248,22.44153395576844,-22.21401002517138,13.637406250713205,-40.133927053835784,-6.367106890813677,5.458315436277958,-0.6891497307911003,4.82792460401325,16.49774507340715,3.0076921907477914,-1.127780663400343
0.256,19.060637738343967,-29.82335340918371,10.063542531422918,-33.85416195076742,-7.673669338634904,1.613847506297776,-3.631947675662748,3.244162388476595,16.18368412996933,6.726114645168013,8.47730117891755
0.264,13.174116337229078,-30.071934042834243,13.943163185321787,-40.163644191719435,-11.361181548403113,11.256977415259062,15.029107942636418,7.414420209596841,16.679840689761967,-0.11878229829732634,22.763801346364144
0.272,17.12338265808839,-21.012060865298913,18.205505499884943,-46.77461804712568,-13.356557200010698,19.24121748335528,25.713692567889158,16.85953952063676,21.415135691470944,-5.831857129177928,22.293977276228368
0.28,28.030953049301647,-16.41845834825983,20.753941304238126,-49.91024758149208,-13.81149735957705,16.841059076374055,15.981602641062882,23.44428660343426,29.32164994167519,-1.8197650170383146,12.215834517632857
0.288,20.436999138222326,-19.89919737170021,19.094360877899668,-50.82565403340232,-10.652555483016338,11.076053933563198,7.046405410879979,19.811495613494028,32.78073239451158,0.30326665166875705,9.531240838931408
0.296,8.27747951774297,-29.37554902142941,15.632783187248556,-46.80587584897717,-5.961293513668704,8.888693160894903,6.969852409478259,15.770462017073319,37.20172393573627,-4.076107871383104,10.85133269056684
0.304,18.009266618694173,-48.18022159243988,16.933486669438405,-44.282597700077034,-5.197581370196177,10.065833915096096,5.82149399083911,22.423835564400935,49.19190517605668,0.13719941827098187,6.393520261053827
0.312,30.96651306370622,-66.93469349174018,21.786226540359152,-42.98714385080243,-7.115563004827935,12.281592786287026,4.752693229131465,31.035235768976047,56.391147522878285,11.649749234100074,3.431497533361321
0.32,29.5262455809047,-67.95318433444001,22.599402236046924,-30.424936449389666,-8.493289627253047,14.022402879255198,9.24333621279536,29.65226655899035,50.82201427807045,17.404495163517407,6.664912049279824
0.328,22.46421308941955,-52.686912380403726,13.78707739984179,-15.548105350250426,-8.467336828965163,12.296955094839792,12.202577190923943,19.548229299235317,48.322857313253365,26.615786347167774,3.957570865622563
0.336,12.502944370023984,-38.50519821054569,0.7012762720861482,-17.59030213375721,-5.055358553170769,5.80911258658639,6.799660687675336,6.344621501614035,50.898892600941906,36.76482816553239,-6.126921073555531
0.344,5.4254942030594835,-36.233536020338484,-2.301190799847078,-24.59458845632215,-0.4523699274166881,-0.6984870726081822,-2.1955590515353665,-4.6029169090531425,38.88685924519559,23.006370642285482,-7.143657410127851
0.352,8.751280487129895,-44.07825404707528,5.984579847630355,-19.06379722961789,0.02870961179355559,-1.4307354650993729,-5.37786846516482,-6.410498758518429,21.763646147874034,1.815758811005474,1.7243541185212041
0.36,10.303079117577798,-54.91959560627092,12.083696722869915,-16.54230789149239,-0.6452700354288098,4.8390044366418605,3.1359115155775013,0.9703216976068162,17.322687377773853,3.856568708032122,4.638828704364768
0.368,5.118310075354766,-61.502186799217405,11.353114698454965,-28.250661348365202,2.901294548819407,10.924377043346318,13.507790458871536,5.1239310573039445,2.854829616881581,4.736547520956338,1.8202141881889347
0.376,3.3726099768694637,-58.46478068429662,6.8321290101088215,-31.315553138864377,7.015028888646033,5.680636680667879,6.660048067907465,-3.159407123966117,-24.117772964970353,-10.250239881161509,2.3872896757312683
0.384,4.436575866348621,-49.498158243445815,0.597237543287496,-17.23237235127939,6.407356367296884,-4.189284890863462,-7.3250719727563425,-11.794447246733599,-22.911011545805138,-7.521275744400754,2.037326294361707
0.392,8.873209340252483,-45.250240426606936,-0.08459704526929737,-9.886161918936788,1.8938360356261954,-0.2791560504569711,-0.8567917992239185,-5.896665918289577,-2.5861422257249838,7.4429460231895685,1.002148141224283
0.4,18.572039253286167,-42.1370318568129,4.432873638750665,-9.97322609835279,-2.6117372176322395,7.487315280264908,10.187936451998157,2.675797917819057,-5.520368603695927,1.9753076086881833,7.184789323930526
0.408,18.072659185687662,-25.44962448613381,1.4226274321800854,3.345669382003517,-3.090299166410098,-2.234075233343807,-4.801482157484597,-2.6740171029362267,-14.841377099023196,-3.5138666580911018,9.591153161220301
0.416,3.697480735612039,-0.7812308213434076,-5.987331549680207,16.550874094709123,-0.5693366190863666,-13.316156140739482,-20.329295318504222,-10.895861640875525,-4.524133843252212,10.280833519728699,-0.6810621332250459
0.424,-5.735739899606501,13.430310571616802,-3.737950599417726,10.713978033987846,-1.7008731490375328,-5.890917483291028,-7.441499540508556,-8.455900336146016,5.776218476172731,18.326365813746794,-4.348184131370903
0.432,-4.0506286655082056,17.898922055141092,2.665657246697475,8.550732163495523,-6.722025550441149,0.8160391551221258,2.6824496623302636,-2.6351029296550643,9.15133057190493,18.490882528732723,3.39929745183642
0.44,3.17679136272677,21.11862310261324,2.8318132385609083,22.386512915294034,-8.211604151288252,-5.761040093364238,-10.762705861606912,1.5024215122430318,10.946975669576736,25.675547932311925,1.275562198615632
0.448,10.230618844441791,19.493880041187673,1.4221084365391474,28.88433450497476,-5.782243799897932,-7.783078023343589,-16.39727132900688,6.815706037896589,-4.197072626602459,23.292053974024444,-3.397790948234561
0.456,5.772361239525933,13.131644893499638,0.5277830524247584,28.027514203310627,-4.671856275869568,-2.753434643734166,-4.558854224527453,8.785732882325592,-23.571323078923307,6.825744156311337,9.271038528943953
0.464,-7.5215429377193255,12.358200642910584,-4.765626622741076,34.812854158361205,-2.291199579149988,-4.847208400531063,-2.588951176206956,4.75129283394432,-13.425847644716256,0.26231753800339097,15.404531432483214
0.472,-14.863272077352974,20.192365135294192,-11.619313501110422,32.24067177146287,4.9913054286451635,-9.893900434057224,-11.38268169761824,-0.4216359053255203,12.064059007212611,4.200170292052168,-6.509799532445326
0.48,-19.890749980806387,29.324534399415302,-14.911603943994526,14.477742960006587,10.652150150738763,-9.14911443342498,-11.470805647291634,-5.572305121456459,22.060498555505443,3.9321816589143808,-25.308689024329002
0.488,-25.215255711748483,33.11675884454543,-16.495705777828004,9.507100349915687,9.52754834410971,-8.460338878725986,-7.457186538466118,-9.285342486999868,20.56600086229352,0.6753871836088402,-19.03444298358513
0.496,-19.298829641732013,30.836886225909247,-17.91489289224574,16.72378115804849,6.519533815014352,-9.493397566867772,-7.9361687700367405,-7.064098869298463,16.107941858968363,-3.0216006557049395,-9.569407285928529
