time,C3,C4,Cz,FC1,FC2,FC5,FC6,CP1,CP2,CP5,CP6
-0.2,6.449225801351219,54.33229216630018,14.621765966075975,-21.843774600909377,3.0413357392204254,27.838150764110623,39.11027113744384,14.800747787122678,-93.43327719418554,-50.00379229419468,-5.93051918480497
-0.192,-5.143213288929151,56.47315913012451,8.623305204817797,-3.4992571327475774,5.692503833273414,11.34055170043638,15.42933969472497,6.6055230968942,-92.18780076339704,-48.61492407849299,-1.4453943461559906
-0.184,-2.9604922452063884,54.34664127449681,6.918864941877213,12.705753972301153,6.050775338297476,4.527183295449637,3.4156332670265623,4.762555731108135,-80.00735263507482,-37.37941235449761,-7.336385839848223
-0.176,4.575042798859344,44.5340553342931,11.404072876227742,12.756240721389142,3.8036558107778085,11.787600835761323,12.831486595750274,4.1915051812595445,-60.69471923832418,-20.97271920661913,-16.834244237825942
-0.168,-1.3431969382478806,37.38406597745539,8.89782280187497,17.832900998747,4.071284581706107,10.652601033424562,14.312482537511919,-3.428135601117331,-56.62143902925537,-13.416669715008645,-15.225039265770059
-0.16,-20.797344817839896,42.550433678460884,-8.9026093236746,26.69515175471106,10.083078633861406,-5.013682236537051,-2.2083713887261336,-17.83424077527799,-58.34450110698502,-12.354250637025217,-13.166343710059161
-0.152,-33.63756883387933,50.21684149033213,-21.665694680238555,30.273155271371863,16.664604450853773,-15.199920845456846,-15.156290758114176,-23.816449639842734,-39.45322455640856,-9.074603005973348,-24.14201743812131
-0.144,-19.39742947226529,40.367056570769314,-11.61088522686155,26.034459562264914,12.220450563790534,-6.807879475887009,-8.017035212007919,-9.571698476898478,-13.437463688912544,-4.103814623313573,-26.89708021208237
-0.136,8.12810194099939,17.08230493765144,3.4794914855762684,16.54446490299114,-1.01031543962081,4.874980989762419,4.256382297950355,9.075807175296251,-5.413330997682683,3.122177875771819,-9.115653273843844
-0.128,15.268819283133357,1.2412872412199492,3.9696615128504233,19.749782347911257,-4.75407590333167,2.0418884806860853,-0.4767307977000299,10.592882969588981,-8.748362556839183,13.131082710488334,-0.3919422177543529
-0.12,-0.2934729434414867,-4.554395119295942,-2.09581387341456,39.0901370695354,4.039635570258752,-6.805880106664276,-12.161083592768232,1.3067863482094864,-12.054988465737663,21.63757634095274,-11.93762475784456
-0.112,-14.140323258689461,-7.549904711802976,-4.098623112176415,48.75291012327304,7.486353969798248,-7.9767143050394305,-11.15246501159781,-2.506084797778312,-11.569200742046382,31.872310670324328,-14.921517728415372
-0.104,-9.73562179515428,-9.979676144270442,-2.577326931961078,39.71362314318244,-1.4556306484438015,-4.377472473228337,-4.035946749181507,-0.30552929620131375,2.5361740527288448,48.642854900318945,-3.5240460236287174
-0.096,10.404242954514206,-19.30524415677596,2.518991628499842,27.823484508689422,-11.332771183992552,0.246462693088322,-0.31128455726133614,5.240176342702703,24.959204486272725,63.483971823332475,0.8480236150557754
-0.088,21.460162711023415,-35.88527735885589,6.598731347985895,21.77594936311083,-13.508042022245482,3.362991782102926,1.0883465870532871,13.58730078959518,34.7308614443227,68.33393561059327,1.2429323053000363
-0.08,6.624531332128378,-46.444281250101305,0.43555958845496684,20.670151674666712,-8.702835916217595,-3.3449659680179686,-5.8531027828732896,14.456282490352404,31.221079804334764,63.755627879206166,8.965618249194755
-0.072,-7.5268797695188665,-49.9992734733757,-9.68832000266416,15.231192297567711,-1.4049169084268418,-13.915999321815391,-17.799376332443803,2.952775767138388,27.161093977888303,45.92506560472103,11.793430387051515
-0.064,3.7921785282140426,-49.79909402348901,-7.577028832369349,-4.712413240039225,1.0031373493928797,-11.074837242346986,-15.621004321035183,-5.3057587797975,23.216083730331494,14.27193947213702,7.4492390210701
-0.056,18.65742521058551,-34.477757902789186,4.200699066615676,-24.593040387956677,-4.646427548439959,1.212264194681854,-0.2097125460760144,-1.2346585684605698,19.88964060635106,-15.589388671834405,13.516940578712479
-0.048,13.249674322949929,-8.144177570941913,8.115428024912713,-25.595108624710235,-9.635438123013332,5.466349831844596,8.542703980906742,0.6853662699762764,22.825893310922858,-31.568733410587864,25.784575587119903
-0.04,-2.0943362303732744,3.764571093032917,1.5244298903737523,-22.456485078792852,-5.8199178761667065,-0.6141863258885633,3.2028201007146366,-7.742503873109873,28.807060964311002,-38.6212756936776,25.48710095152552
-0.032,-6.63758870113582,-7.0030256962945465,-2.2578882280812924,-35.82808789229711,0.07434866198193024,-6.8299172194707936,-7.586788542603136,-13.723275714009475,33.701721377881675,-38.40519257051375,16.006630111471086
-0.024,4.239739780633108,-29.50252856804614,0.45798167802026984,-57.049596550875904,-0.22347092227734552,-4.206924065571269,-7.841897112078787,-10.296660476684995,43.552218358947535,-25.93289706691461,8.455681620028184
-0.016,10.674603216132397,-46.16003593800253,0.160396534129478,-68.07473553817562,-1.7965335679212653,3.5105712799204634,3.8723339872366185,-5.058798231806863,61.185413457083165,-11.19859043074642,3.9522353135372397
-0.008,0.7139519055735842,-36.918724375101355,-4.913959025745279,-63.864088290706135,-2.065897322521881,2.440173707999406,5.204190932191815,0.9169152569039882,79.72930269599591,-7.779005723254696,7.388470532218472
0.0,-0.5302314914167084,-16.569312604993772,-6.539053311106139,-48.132770374502314,-7.874891120593511,-3.1333910033446983,-2.8349014140436606,11.649169024837187,98.44991270747688,-9.161273405191494,19.976929963869825
0.008,14.514652517985704,-29.352940996068128,-3.8766347447919083,-30.622496094704438,-13.825943219923928,2.536723497912823,5.721632776538967,19.20320916068527,121.39788679653353,-5.616250568320509,26.388011939035746
0.016,15.20304874227226,-72.41427799516148,-0.9030671561099675,-24.846129851486687,-8.63996074972203,9.604627832492293,16.862079127270643,16.720216211584603,132.79822464890927,6.136161330657137,17.581984862977016
0.024,8.241855222736994,-103.89691936367711,4.135110511991309,-28.586094972987823,-2.3334830296591442,5.87790544935672,7.0597112095573795,13.311693181472304,111.23130293674463,36.5807266345266,4.356968980634016
0.032,22.488395323614885,-119.66287678219436,6.928779225800169,-17.81664868186012,-7.247527102717787,4.186212608596387,0.554479845613779,14.06992573513926,72.99498690027905,85.28658613998476,-1.5079865872832652
0.04,36.5628925400884,-129.90793656463518,-0.44049643724212856,11.635057836661241,-16.386349303706,4.575771987216862,4.835679370181728,12.656017244347005,46.19066850100862,140.53866545229346,1.5561876295413426
0.048,34.95603001797279,-115.3436472446439,-5.547430946327234,26.409838990405326,-29.4317575055608,-2.4888111410754785,-3.674005201665014,13.175038323012311,17.793708770057385,216.57812359515896,8.092152322327395
0.056,41.91389456740264,-78.25645294825765,4.848802645056272,17.85553377038263,-51.76109159256712,0.689278521271587,-3.321021879002497,21.784730188088343,-26.029966472752715,313.77442014656447,10.882805611064605
0.064,44.62826444201947,-51.17667266425007,12.492668748765391,19.958392315650684,-63.972784915123135,16.657580609978506,22.355336987549894,24.695597391597026,-60.3901393941891,364.88538794813195,8.83619792698889
0.072,20.597786353442544,-31.08244925919093,3.242530923402697,36.18561025708305,-50.07355262603843,15.80178008547337,28.4247195875585,12.535182073160485,-79.07751392404721,321.9753831835081,3.260919843910868
0.08,4.671422411119009,1.1009001050599239,-3.998760217516911,41.531154274407626,-28.919731283772602,3.0748988330123392,8.35753333125671,-0.9300950647784856,-101.91032904387328,235.40469516944881,-10.95279667336856
0.088,12.343874411240861,24.06387277743017,-1.5656872856324122,49.32142111035837,-14.869372130578105,4.46887282441265,5.467548820575445,-8.43822311390431,-113.52887866042605,167.5108478787657,-34.01355843744273
0.096,9.12437190526739,23.58420861108056,-5.272679325626229,74.34635791084447,-0.24523621122318595,8.025095525057461,12.70119272041811,-16.75317439009789,-103.33683984503105,118.1268268547814,-51.486510985705884
0.104,-3.8266230128242995,34.70492472865816,-13.969079764948532,88.4348126774855,9.223579803883124,3.116588248769657,10.095227138621215,-24.531672661487324,-114.67329639479807,81.33863276837594,-51.091740738329634
0.112,-7.305881368761579,78.11847168868213,-18.57516894567835,87.65918211487417,2.6860962924363756,3.112877857844075,15.234229866089544,-30.80122047842712,-159.9426583616457,77.01904415401242,-37.62490657244132
0.12,-20.551108503227947,126.59791153946047,-25.97557876562667,104.96643461332285,-5.944324292930477,0.5794902121361536,20.181774958339044,-42.73368308737326,-190.53365944125449,92.78414357468128,-23.685588742730136
0.128,-46.10119780310193,158.16036126446872,-36.01004631446809,132.02268475254579,-3.3046318175697578,-11.097480378460366,10.426881880820064,-55.00139466473005,-193.2370581362667,81.63666672140307,-14.614714840156648
0.136,-53.808367746807,178.27964445044765,-38.526467499580136,138.76598637969738,1.1477138756710425,-12.52013864069618,10.445945228135066,-54.3304454971793,-191.95794399440098,41.96588745031842,-9.581683972747602
0.144,-44.26708307405091,195.81678898545854,-36.474118817994146,142.98697902907995,1.9886148386421836,-8.198037104324705,13.90916368656271,-43.99659393303076,-179.78178219009638,16.05158768157908,-14.37532790897552
0.152,-39.821585537397986,213.35704555175823,-37.089007072145236,165.04479560509336,6.994340812162408,-16.43704584160638,-5.198752325416212,-37.7081948597673,-153.78746893785862,11.015663472745,-34.83872070933048
0.16,-43.95305213113797,218.04955559467507,-41.90329723197657,177.6537275335601,13.747655503961626,-20.696501476949457,-13.36017212569203,-39.56960512195778,-140.09605074958344,19.098647042799968,-55.40373661226414
0.168,-49.89644378914986,187.47429113769644,-50.43262055258429,169.8812015459204,11.87295183282631,-12.435910746819362,6.105988890586311,-40.52254968341527,-136.90139279693093,67.51803941678689,-56.6185260427026
0.176,-46.62922757888032,131.3702417094835,-52.51328035677335,175.89059794441306,3.6690273606490553,-13.766671203062229,5.107680078216847,-31.075389330277982,-126.24391063984072,149.76225110557968,-49.900347365962105
0.184,-32.781253231657146,90.83435182389654,-43.02608738707822,197.07708586963196,-0.8739211572786,-22.39578023369258,-17.293773641526347,-18.56779641011492,-122.07278156563754,204.56908220490536,-53.86548390540483
0.192,-34.0277282413065,85.10904229613983,-40.09261443472205,192.64132161516153,1.0958231091140391,-21.66398871945164,-18.462994818218544,-17.89068311253012,-130.4424844936902,214.38280277920157,-60.86184634621242
0.2,-58.00850865252458,103.74021900267857,-50.88331887503421,164.83205989602192,7.994177745485958,-21.06966005038474,-11.136850206572296,-25.41874883846205,-125.62372463064786,200.9004545010221,-65.14884094646419
0.208,-73.50349349869572,132.2900435161387,-55.78402360665524,152.0889073160445,18.4554007289527,-25.146763732344542,-17.308551368877104,-28.70438029274706,-100.49082906194512,155.71644801926462,-76.8660522207794
0.216,-70.67584357701922,147.52355546178242,-49.33862731216506,151.26497905140113,28.14165602504119,-23.15629667463334,-19.200175713259117,-28.596105918771418,-74.93993912910258,89.62405587163134,-88.60159877320271
0.224,-65.95767637047378,126.41066608764368,-43.14613283137441,140.39621766534896,32.82110500384888,-19.66766464215773,-16.03329196088119,-28.161681104352883,-64.55914985943036,52.88271445747465,-85.46077259648385
0.232,-58.23809984749963,82.47629300314343,-36.84021200623156,130.03561425079056,34.32719136633355,-18.99865873295231,-17.529605919680904,-25.651081444016068,-77.13382394548191,47.89212821583556,-76.31289420593019
0.24,-50.5940079432044,53.54364645400975,-32.0692303095665,124.84447019597239,36.31945366391532,-15.668121762874193,-13.603310800835848,-24.42804055005112,-106.06729630149843,36.813841159381866,-68.86655143138
0.248,-55.677885973563576,52.394694978156544,-36.87441286734369,108.63708763013344,37.993520518341946,-16.920906806623577,-12.405028929615854,-24.206795014960854,-126.79482011425391,19.482481091336847,-57.10645517059228
0.256,-59.998311895630735,64.08632927788798,-40.201842692138904,89.20000913738795,37.45377811450782,-23.312573005405714,-22.800526026627065,-20.320048722546893,-125.62483568384603,10.66982414476244,-50.67501710436411
0.264,-58.79863822760363,77.83823056101109,-33.997561718632525,80.48651272258901,37.512004086405575,-20.169962974972755,-21.158226412140554,-23.585227073833718,-113.06087493078968,3.210500787074662,-60.12996554917111
0.272,-72.59623681596506,89.26670708287675,-36.03558114097122,70.52034411299852,41.39253076113178,-16.013600962274808,-10.077369010861855,-43.36226903213692,-109.11385418165304,-2.7236224354282665,-69.68726438976174
0.28,-84.44689688914094,89.83372649508291,-46.17094615802212,60.92930106042894,44.69195564346917,-23.750266558478497,-16.527747925436554,-58.484479851142346,-127.51560774483349,-3.580340226964721,-66.18736353244205
0.288,-65.65305180153817,79.80952299492596,-39.232830785194864,69.05976155950238,40.224222940656325,-22.7556442815136,-19.127242553647438,-49.09374188314528,-153.78616973875614,-11.191662825735055,-54.993732689824576
0.296,-42.302902602047936,72.09833072046516,-20.819502275985176,80.18494620765803,28.940799190230337,-5.5463168029676995,3.0308791546225784,-31.29494180695968,-154.45430215712972,-17.901038329968564,-39.48988328619959
0.304,-38.013890272471784,74.35008221207711,-16.962827411685126,76.8924899079946,18.559253567519285,-0.6491398010078877,11.568681520706214,-24.340732395977128,-126.55623762211165,-3.933195189762991,-26.39978391610014
0.312,-36.09005608505305,84.60062933620213,-23.62204297748883,75.35011532717071,14.677885613285298,-11.701158003468702,-6.486019480819674,-22.76230452296188,-93.76961848822557,9.497973018805624,-26.74319637143128
0.32,-35.5984245828639,91.4494988807496,-27.234529853728663,76.03493506560427,15.083222394681309,-13.835088169461994,-10.137761779692935,-20.033612872340516,-61.01861231868443,4.949395661576327,-31.490460985781827
0.328,-37.84347282688697,75.53550261368622,-28.72087202107666,59.94489716992601,10.38945265991797,-7.199492539352252,3.081447792627498,-16.481377546103516,-30.19469436420992,25.882604214413636,-26.58183080815353
0.336,-19.122386237492872,39.814203735438284,-20.55641851533258,43.720043591187306,-3.163025982964088,-3.7250940792817633,3.431225787947714,-5.460829299673818,-19.6723715890133,87.76121967084828,-20.19450118345141
0.344,8.936094687967813,14.990843931868518,-1.5402419160007939,46.83914260993551,-14.038828043470495,0.6900586254943658,-1.1281825294424084,10.61371619120646,-23.293976008463957,122.29206384335812,-18.89860595378887
0.352,6.667176853832264,9.527711162051949,3.256650849360313,45.70644763081733,-11.268473107080128,1.3622888071254813,-0.8846846809306224,12.587847042185091,-14.758193782008394,93.16464046361229,-12.55855795182198
0.36,-14.512726249823217,3.925920556727445,-10.584963400663385,25.044165142026323,-1.0772263398948958,-9.893756465349382,-10.768745883362195,-1.92775079155907,-0.4154546370616828,46.76078768217851,-2.2357051651000672
0.368,-17.126061109680066,-3.146442927754031,-13.739079010692105,2.134496806768193,4.4159255375866495,-14.56242886097509,-17.589995741677228,-10.921343387739592,6.631810367729569,15.708732478118028,-1.3471196005526527
0.376,-3.5423129027547753,-2.3273437549555784,-0.5759528664171383,-13.035006545137485,2.8740437686715414,-1.2533790845319042,-2.9966622723765233,-3.596586990191398,26.043970842417494,-4.310712415580017,-8.197782912913404
0.384,4.440713796588822,-5.243056010639523,6.312492153620913,-18.43664081201738,0.013438461222127848,6.09836418422312,4.732854111959324,7.275843421443934,55.4033842136894,-6.186390136581845,-10.601495818177712
0.392,5.3238229603524605,-26.253592072627267,2.362764943752448,-16.463384077342184,0.49239745512014094,-1.8772809413897529,-7.704618850602744,8.028874817311486,53.07462751627924,7.426885515200445,-6.4947681465700935
0.4,10.90325229482467,-58.70426242131939,-0.03788544373497802,-24.67970815657289,1.8089104638888756,-3.285818482084748,-8.293600526503106,1.3086050042728925,20.11497800079559,12.236129598099453,0.7041748874737099
0.408,18.2701089018508,-79.7469233904163,3.596086390695393,-40.73542891840539,-0.6255642953964734,4.319410618434593,4.645869413825053,-0.39563789096418617,2.464364144607096,6.9070775962553626,11.114210616402556
0.416,10.996831526220051,-70.6566421962383,10.28447841489269,-42.011237391994655,-4.420467190019308,7.173990519515576,9.21883667016525,5.201678485719549,6.6895311153175685,5.259260761055508,21.39555972049858
0.424,1.3346764693968283,-42.579865201220215,15.954759647586714,-38.64238161290404,-6.99535573945062,11.520370583576959,16.370427452494077,8.779479186744062,8.98162857352438,-0.11760390999544926,24.42047944265982
0.432,20.497272534903672,-25.123969556343717,18.920015973304668,-48.49389758219025,-12.147333082425979,18.554424347047192,24.49539933268347,9.453883063761541,11.699958515030202,-14.01542581032507,21.439904057941177
0.44,48.57581831389164,-27.089875334383688,19.97273063627357,-55.033566499195466,-18.06137728073858,14.13335733382055,11.380699124349045,12.425108003052184,19.34470208277783,-16.539813534808577,20.3007313521769
0.448,44.32555288155962,-40.10045945759239,19.009190678152905,-51.44466807911473,-17.561704729425927,7.624033672351123,0.5305465003653858,14.009404855397078,21.245064517912297,1.5509701651178556,20.8756445947779
0.456,33.70282319033232,-58.3572293826252,21.91943864935888,-52.76720536528869,-15.696341181111839,14.946615412561322,13.964571842918618,14.935812413608515,24.338854142844436,18.52065762286987,18.932416435894535
0.464,52.95640475872588,-68.27219751429894,33.94096177929467,-54.317516473536344,-22.09867176395546,22.421081678055913,19.819150520409522,23.325983591794607,36.21340129363019,17.66424421056181,21.398672246852527
0.472,64.16215537624755,-57.77310649275191,38.77325726664869,-46.03982485400366,-30.528422014916302,19.830836972239098,13.514461368522856,31.199632559494507,42.582033239832214,12.45271779715734,35.8989015747503
0.48,40.885486619524485,-41.901032659475085,24.655491413086416,-34.655234068173755,-31.256048777650633,17.060739713639194,20.709363203642905,28.040071975113072,47.79856841832804,16.687255834183947,51.08839878637982
0.488,31.317241944102122,-44.709634519370354,17.252850186445148,-30.285200192796108,-29.83367161446845,14.35842572542972,20.58698547898229,27.19128168482394,72.24035283453871,21.671022389686456,52.069001575610756
0.496,53.557104927331594,-68.44839349524537,32.74473040542841,-46.56263912074349,-32.76351594727004,11.369741941885389,2.8789585077036004,37.18312453233722,102.41543286077308,23.20117704160943,44.7655408063049
