time,C3,C4,Cz,FC1,FC2,FC5,FC6,CP1,CP2,CP5,CP6
-0.2,-18.47409497460766,25.89784817561237,-26.07482904656829,28.861891077666666,0.9774245557911038,-6.573277752613722,4.174893373319089,-15.825082004051355,-25.61456692335892,29.913569407355688,-0.08558828019004404
-0.192,-35.59983013747128,40.91265911385082,-24.661484181205005,17.562460378714437,0.7834996938894276,-8.942800921507894,2.788542092802401,-20.73183830096367,0.11258762127522247,18.95401430259399,5.419591808970877
-0.184,-46.25314333752747,58.44684920458995,-27.706189112594775,30.159109387127337,8.055670920202868,-18.55785234782089,-13.751660258818328,-20.877174180987154,19.607549693340104,0.9449004656892938,-4.896410424079225
-0.176,-18.86939054157442,58.78076883798682,-28.18118027887475,41.087772334045084,7.835286398674621,-19.291058028214604,-21.021415723055327,-12.04371729995397,22.91759157220919,-14.588994993821592,-13.43945194117279
-0.168,-3.2982656785251785,46.97583488139104,-22.352437175925843,28.741795666707162,0.6657614080654971,-10.552956542030662,-8.92324916274521,-4.979114604769335,33.429690939805646,-17.282423707429455,-3.49390489916668
-0.16,-7.6070078092910265,36.19492654780723,-12.933461267587047,10.356476184604654,-3.2494754842566396,-1.855205896966088,3.748166511135593,2.19633628713888,49.11778054285051,-12.151704339385832,4.529094699776753
-0.152,0.9518181528226821,24.47957356955644,-5.338668768640725,0.936091167657678,-5.165521670424652,0.22480324131816629,1.4644365450919354,9.603955861712436,52.73751474740077,-1.6864336054978313,0.9495701493843313
-0.144,3.468442424849852,15.63227568019768,-2.441012577030538,-7.75575487610763,-6.326644625600577,-4.067423022269654,-8.162899868488228,8.525925970963096,42.012612449874894,12.143190845637019,0.42577392236161304
-0.136,-9.603339326270948,21.097150583297164,-1.3737515553527824,-16.603441175326168,-2.237483755251738,-7.035339827060667,-13.144449668825537,4.432147231359647,17.541825908297994,18.443258073382353,-4.247513851513574
-0.128,-6.728170258121161,30.52809861267731,1.3842442597042384,-21.812633122981214,3.087393902075913,-5.027335679357822,-14.757136730802074,5.780597122117709,-8.451745644486934,17.64646268978491,-21.7106047417142
-0.12,-2.382380758827919,26.978310797845207,4.87499997120113,-29.48857389677394,3.707932502427051,-3.5148478232821603,-14.834313071053023,4.515196426272927,-14.316987723684292,15.734931387654754,-25.76424270341185
-0.112,-20.02316523468823,14.661863852438788,5.368374926172754,-36.78392839284506,5.007280538288374,-4.997268899491189,-11.298254240377872,-5.783378157214561,-12.446979433609474,1.5390278318198567,-9.123671289889996
-0.104,-23.449962090639893,-2.6426248299335,0.35114752983605185,-37.71033302148305,12.6040735760141,-7.283045786502655,-10.832043404936709,-18.887845828856463,-34.154895981490924,-28.62382215220134,-4.821877451014249
-0.096,-4.646724747748682,-28.922841996893002,-5.478649888371238,-40.33897384208484,21.44309724174444,-7.656179187505228,-12.857698185023311,-25.84000712792704,-73.66603175069704,-55.370778600254546,-13.290870587345477
-0.088,-0.7805619063656009,-50.99540368317335,-1.4341149479105093,-42.076133817114886,22.773722249198933,-0.07200570241345863,-0.45781594816615007,-18.576364399312062,-101.66588466653828,-68.69117435528588,-2.2049723020069614
-0.08,-0.45342685243426295,-54.10476880655686,10.938303273167836,-31.332885985660457,15.499820642275335,12.904750438460107,20.2913986978974,-0.9161456063594834,-103.52611001708908,-74.82024127047336,19.432444919635742
-0.072,10.729351465614599,-46.34510805993979,14.437229537108077,-22.62967378769088,9.65550453880848,15.843261436627955,22.903589434273723,7.465394385807341,-79.7575553267279,-78.39526847415239,23.434406447827286
-0.064,2.052221602509366,-36.33154688831431,5.7588000373021835,-30.01666370576232,11.75707207687791,8.945255242677037,14.852020108450317,1.4244304177372507,-46.35109423890092,-84.88269755318471,20.226719635623308
-0.056,-9.170994959073676,-22.383173146822873,2.200395067232375,-34.27144750002903,11.595137878504621,7.7835098410165156,15.968932508883181,-0.26565126501028086,-22.696560157208502,-87.79885349086798,21.463923201658677
-0.048,16.81241311688037,-9.847423650136445,9.21023938188089,-22.777676020462923,1.0964842206522665,9.824026022251129,11.549298379714479,8.883596896449289,-2.248966480338074,-60.869619851599886,12.228798734656522
-0.04,39.72402600075231,-3.707422840184318,17.51544126733295,-5.313170437390995,-10.472573756984554,8.289717658067115,0.21057694987386597,16.374637227959916,25.514069775770498,-5.824846184611669,-3.1494411174220756
-0.032,27.24693628055374,0.34147186712264843,24.863793662677164,16.740703675554606,-17.537964408526065,13.131967138759306,9.473993660145485,18.861182596912194,43.67650821545345,38.33517054586408,-1.5125447305993172
-0.024,20.513952984130377,-0.4070897782244848,25.410273301710316,37.63237591243116,-24.50049071422989,17.7812553382051,22.271546790536952,18.294782367722863,46.590268855274864,63.908639482970905,10.530505123234557
-0.016,27.40145080075746,-16.567929820778552,12.14209708030969,42.3471727630936,-26.822426395748273,5.578884920251741,5.375254180570667,11.649275815015054,55.54485900689528,96.4336654347231,8.837266595891968
-0.008,24.901792373130714,-48.534126955685586,4.843216449728431,47.28551013981424,-21.32740256544031,-3.411299254917572,-9.335012266944139,8.09849823813935,64.59814296210418,129.97794962119985,-4.918123043948389
0.0,33.53805341116593,-80.13817126773053,18.67722305469741,77.19993089429681,-18.90517896702825,8.5304653943201,4.303299296540831,18.620361930097378,51.49637605357776,147.0120784900907,-14.818877875546805
0.008,49.33230348102663,-92.77341138864776,29.08110007142305,110.8740929820751,-20.4122572576709,14.26788630383513,7.29835527177107,30.26085214614472,35.80856397793938,164.1782710021715,-22.230276184626916
0.016,33.125492484110076,-92.71991940760125,23.982712206454,120.23575978059546,-15.335724422957556,4.497882127267921,-7.740858532290516,30.481372809309367,36.430566066372954,188.858855009107,-31.642849735535293
0.024,13.246844898856297,-106.6172977389541,25.85475805618446,116.6667763596981,-10.396279738879857,6.747717648731815,-1.7837019785777826,30.269847722037266,26.56653615188074,199.843802157238,-31.367695773515923
0.032,34.61695993630038,-135.632726774201,35.436197067156286,112.96077388377284,-15.900459689027743,19.468782289197613,15.696894716501381,36.87021496611294,2.1192714218339157,201.0773011358346,-21.519238655521
0.04,57.8468666157772,-154.04805432074605,34.12421040737375,103.86001463947412,-19.450385844725112,20.671142188534745,14.085789266174665,40.405701420384084,-2.3898052891869006,211.5711002470978,-24.120964517753563
0.048,40.25992158026072,-156.0354608434722,24.43746813691106,94.11844776679554,-10.489185591649925,13.064978103011333,4.260499909481939,34.1650239616507,7.652323817839696,218.27090178682735,-37.624168664462836
0.056,14.826365268065903,-154.31358306684888,12.696555888779507,92.53192671300323,-1.7673647988353107,3.913993812512725,-3.105990140095808,23.071565042885748,1.6435315547175482,210.01787298719552,-36.49526064832261
0.064,17.876341820016666,-152.67271027812902,2.072126925601573,97.61474341650164,-4.028212102818209,-2.9760780624259557,-8.983494418592896,17.712355841304802,-11.027028999225664,206.35310617097727,-24.407082463606432
0.072,30.03223179691655,-155.22457116814434,4.956119174853647,107.5797888565378,-9.173550884263047,1.160111642083238,-3.4837957638107078,21.594044708448425,-13.123767628278463,213.8257921958847,-21.019848435289827
0.08,20.212533636193765,-165.36136902690436,15.161365638073947,113.874385854261,-7.965874256480316,6.139232333932908,3.3504441308341506,24.247176384290523,-15.002071651618405,216.67251647474774,-18.749819678693292
0.088,-0.08291265527297367,-171.83212437210287,14.423512585836377,105.01280095592696,-3.474487020132808,0.33101941248824185,-2.9963903557155573,20.775693605624436,-24.726991044253804,211.76896580793866,-10.663700729562391
0.096,-1.6052573762622397,-170.10226218073848,10.46757050185014,93.30725964827403,-1.4069504437157692,-2.346245741618508,-6.315272095896171,17.021553259316317,-39.01892226632889,205.57122932951125,-10.413374521164693
0.104,5.186523038119796,-171.36797076614258,9.597593555377415,94.68286082961338,1.3406146009290112,-2.897362039714824,-8.257557667589014,9.978710169447389,-54.60425641399781,198.65294092101666,-17.79648789921946
0.112,0.5979949119812308,-179.5344759731189,2.5401719670976064,99.12419949450243,8.747881503989136,-12.980029171614937,-23.307758768968743,3.185342671083226,-65.84463846462765,189.45901309224436,-22.354151454421196
0.12,4.771164594999791,-193.39722899090046,1.9357938231199563,99.8266452236588,14.663123473441301,-10.130421595611837,-21.229340082285056,15.101441244013165,-67.43436918354719,175.62244524974557,-27.280928916440367
0.128,23.54665757553361,-212.16183362033104,15.082724930668311,102.42290514809227,14.17380826618309,10.662389966168405,5.711202361117875,35.901234633401444,-52.293824063390396,159.84464187480177,-31.699728654717017
0.136,26.480109060743516,-222.6720859991855,16.15321010354259,99.44649217221084,14.549525794394263,11.490408093980147,6.3841455817121755,37.5021717853804,-20.035599670808494,147.60970886344887,-30.786281242632658
0.144,15.808995005963864,-219.92627661922953,4.783719837259574,92.44969843249503,20.619077858469,-3.1663570013907067,-14.662187896940528,31.127099011698316,4.694248411442319,134.23805902396893,-33.42119934637123
0.152,14.358130103217754,-223.98815826981587,7.307819463231602,99.72556502888519,24.784486568331083,3.5419434389552324,-4.760690590530003,38.701171774433575,7.017043330165839,121.82054327611522,-37.45921024333501
0.16,14.892693471584964,-240.94552981707494,15.35825376357634,110.160807193635,21.86553089640056,15.160015895298907,14.936968719207531,45.42947981808051,7.226969288681652,121.62833357321587,-26.671707499073783
0.168,14.94774729233326,-251.76629069785602,12.690286084951545,101.28823111545606,18.933407815830268,7.938897803653023,5.761143896559822,40.35416793935919,7.048069300256863,117.56816518299694,-11.45400479954681
0.176,20.77642129839856,-251.71621503381792,10.997502245922385,91.96324756601362,23.761248263543877,5.133896331153462,-0.29165563791902166,37.458566928791434,-12.488448783412261,90.3816443171277,-13.317604100978969
0.184,16.19649035576226,-247.9105566078701,10.66386344119125,104.53773708265827,32.600197281031896,11.050129584823416,9.880161790784431,37.2406189676979,-28.930386732679345,64.54820524371117,-22.41346324455238
0.192,2.9697822791351287,-237.2515500935518,2.1953652578622553,123.11154736974726,36.35396545867354,1.7644296310126584,-0.5517660119193105,31.980340771430722,-12.025994796178912,58.469685649446774,-22.434251047862524
0.2,0.5286183543053459,-223.80264641659252,-3.596529491948297,135.53977279052992,36.38008036267086,-11.994728148499226,-21.70275731628832,27.967823324611278,19.113085560982864,46.99656647361577,-20.369118551140986
0.208,-4.147048116748806,-219.88564291271507,-2.742026352165584,152.79290946151755,41.89514453555373,-10.691189581885839,-19.01267375812652,26.945481363026634,40.30732326245619,19.925062211828457,-24.909232796857207
0.216,-11.460878060595975,-224.6555802577608,-4.654940871364082,172.81726594353833,50.637605111478535,-6.743293065453946,-10.383244444934304,25.28577926911953,46.476127892277425,-3.3324764101985105,-32.20426736207267
0.224,7.72620645571405,-231.06130454086335,-2.8960401678292533,180.96111428757303,50.812758657626084,-7.015223572841837,-14.708999183706185,29.663820659469057,27.39751282164757,-18.1829434339686,-32.506447283581196
0.232,30.250782275411613,-228.27387472232385,7.262388777545624,176.07283658124553,42.76367467413437,-1.9143604255773856,-12.12018334299093,41.47398141771035,0.7333385089104696,-30.115618738275085,-19.249757641935666
0.24,17.352040742216786,-201.8066583476743,14.393692523008426,165.51729200830735,37.16157412085325,4.835277644639931,-0.36227490253337574,51.54938914191799,14.314554358787131,-38.584018073553665,-5.749047241081934
0.248,2.785738411828726,-168.77140499553562,17.201174055474034,159.72324569260184,35.78452178890683,6.128795897502359,1.0775774836529899,58.18506861947527,70.72401535984162,-47.09877412810108,-9.98436574378618
0.256,9.521504330839882,-166.7376216416643,18.477334238982696,166.84210555490498,35.40582527736535,4.174708094376316,-5.098310581939897,60.61855964610574,125.39923155776846,-55.53185280614672,-18.349145082033527
0.264,-5.701021015169523,-186.89703224408524,9.433956372005381,164.74274226134833,39.81030450911873,-1.2918057029265604,-7.084477319593815,51.2683194956425,144.99626207912127,-57.8774859831936,-12.197943066498686
0.272,-39.57199081091264,-189.72421741371673,-4.993730954619757,133.33801961750677,48.35940272049425,-8.274558323401036,-8.120211318420248,35.724838933154025,119.3940176892797,-58.763631780140024,-5.76536266419703
0.28,-35.644485307798774,-172.99114312106624,-6.389949084946026,115.6793669278395,49.50604383696909,-10.487358937902968,-13.476628169913363,32.213502803895864,77.11660136426201,-65.78977110790336,-8.94339095151249
0.288,-3.5707793763017492,-160.4210303848223,2.3290460581713073,130.9986037858626,40.21588991211911,-7.253923432823639,-15.547698931574667,42.03138560657354,72.41433580950304,-72.55143053587987,-6.724730961339882
0.296,6.1241058899024985,-162.10387179091433,4.377394772505632,105.16854922142927,31.941122080832073,1.9392285451763316,-1.062610718631198,47.64878550745007,95.47614235341443,-67.08183366640331,0.7450301197728432
0.304,-2.679315178596892,-173.3809601662751,-0.7516548992346068,39.14861148289304,31.266775093927738,11.759157215878885,18.4463285865465,41.81913928004373,89.12939270655174,-55.52395860416766,2.504357390373865
0.312,-1.7135502841556378,-179.80089065020368,-2.638540377752962,34.72081263592509,32.85906796303158,7.5100461879648295,12.2746124839317,35.433026630765916,65.18723497543756,-59.03872460742315,5.279434363798877
0.32,7.512491514872498,-173.97612454006722,0.44353668081275877,44.846632726631626,31.082579356324747,-1.946523205172053,-6.249712437527723,32.65640345112239,61.50791751102227,-69.82446638582984,8.365419844505729
0.328,7.869246388629458,-162.64346598361314,-0.2188755716547583,-41.38657145714039,28.77299885815371,4.878634441007566,2.4772103821377938,21.756854701564215,53.54976573136961,-62.95981390776826,-1.4528414672826893
0.336,-7.1658653250218975,-139.72798186302975,-9.334398975912475,-104.56280184871109,33.258505583431166,9.669804192129273,14.436113161949569,2.9688639260400387,37.612850880481446,-70.3996846070744,-13.022685321501928
0.344,-13.999911472643264,-106.48216365935156,-15.298149345081944,-29.323021896147598,40.621023126889625,-6.435624524419877,-7.313266668992326,-2.385774355457936,56.987803205409016,-130.39300545024273,-7.48481584518686
0.352,15.267825980643122,-100.61157635440568,-6.044886575491272,19.665034567623348,36.47263973149417,-9.195315746526479,-17.835142576487232,11.189917592769733,88.120759597029,-181.4609440181968,3.7948588211703904
0.36,50.57384690332771,-123.39096117037215,7.650323055712134,-52.66567146967899,22.278197662372254,16.327590647301403,14.89904342484268,20.97331535199831,76.39567294499828,-156.25789061749666,4.399973921472895
0.368,44.101588447965185,-112.85111928981743,9.144186992061638,-87.03811269966441,12.54599665566463,25.823327854239533,31.904131372451488,15.936262931321,51.230252201456395,-96.39690633098175,2.20980352944334
0.376,18.146337107236853,-59.68112063695798,2.342103345270842,-38.2244587570118,5.556441415813018,5.450230429716428,4.792882202223964,9.35258415272746,59.89606800454303,-51.510297212636246,6.397326022702697
0.384,12.019971686035468,-30.26054071253822,-2.454870491777233,-21.176994976436916,-4.425089969376953,-8.734768774262687,-16.40497730196885,6.16266318313473,82.69183990914301,-7.001812550138809,8.751722847563624
0.392,7.4393223193684,-43.64762328979663,-4.68838483498681,-26.142716728561986,-8.382115567477912,-7.016970642652279,-11.407058106961687,0.2868713315162065,88.78682185951666,40.7766631346184,3.8256599384595837
0.4,-8.418997408390142,-52.720378506161865,-2.244641571680063,4.808008627548443,-8.347835652185998,-4.522484044877371,-3.799212741673079,-1.9775047897738303,76.58908887356107,78.45298600620312,2.762162647090215
0.408,-5.973298166416961,-42.51418679559368,6.822215896469617,31.706641042810222,-17.76297336632922,-2.006220391861632,-1.4276946739243161,6.847147606313617,51.78596775508202,114.12149085790782,11.065065670392663
0.416,16.511786339495483,-41.478780749920176,11.36162832749351,35.742452530743726,-28.42964270863245,-1.5822560745295053,-5.937172906306764,16.906117556526787,20.618227191481562,150.3042670392249,14.434484254335315
0.424,22.56850427676712,-44.01260112563095,3.0879108112144977,32.32448375066141,-28.36554924520034,-7.115236240443145,-15.526259403278138,18.59005527727679,-13.581637962613494,182.3747966489486,6.64098958462667
0.432,4.679935698114009,-3.5800030257414983,-4.759644695972509,5.35284379768919,-29.791858575192027,-6.998937904740458,-11.895144372168817,16.792424288499568,-47.32004828655269,208.18916056886215,1.798333145195958
0.44,-6.449973136951408,80.86446555849666,2.062421291684014,-17.269911119663448,-39.06702693951957,2.9617106358053653,4.21811852657248,15.256726887090641,-75.22666305740559,203.88046776382555,2.474077977508379
0.448,2.425858083492821,146.74006199808352,13.838100718732589,7.131573742825483,-41.05384608345559,9.600677484303956,11.244571663282898,8.763558677531485,-113.55776291013532,156.71136097367688,-1.752173988389681
0.456,6.656423421895254,169.08209633908055,13.647929150771908,33.097611213617704,-31.84213469006036,6.331628612470117,6.514863123554661,-4.9963888391515505,-169.85070748451534,98.94949863462882,-4.217738480045039
0.464,-5.924595989704264,183.34377001519223,5.399388654667534,17.108981832859463,-23.909439086275935,-1.8219285985354907,-1.7228778923828576,-21.48822547808453,-190.4308606970885,54.856411180058835,0.38139532055390896
0.472,-10.82433149536903,191.46729843358563,2.112167482180628,-10.186248052872669,-20.92114366223128,-5.926390431467612,-7.371851217856088,-37.30123016778774,-137.47082539914794,26.47312532851589,-6.828489154912661
0.48,-5.552551496942079,176.8069170349936,-0.8414928666071342,-30.613317186609706,-19.62538723525748,-2.3185330293754016,-1.8378963486004787,-54.68998670509065,-72.50856943633217,36.041284429585936,-28.959473748148447
0.488,-19.214797916684752,188.5647507336298,-12.901855850935611,-52.965906483606666,-25.270304373042382,-2.3277079544517494,5.91415807954429,-75.64103625672837,-60.758684651606806,90.9328916641699,-37.54184029357031
0.496,-40.788428208367336,271.4460738625158,-23.922572304169705,-66.25136652489631,-44.19527770046458,-10.718764806437209,2.60249505381834,-92.8808255164474,-76.97778178433286,144.72702364034276,-22.591177584158952
