time,C3,C4,Cz,FC1,FC2,FC5,FC6,CP1,CP2,CP5,CP6
-0.2,-15.999339559222983,3.495508642795878,-24.400857234534822,74.83956300493112,16.707508579713927,-15.528534492143363,-15.815503730352846,-20.957518863070838,-7.488030560005407,14.726516311713691,-29.858140681124357
-0.192,9.259091373163717,12.27902112874591,-5.130739419828871,56.83832309615316,4.427670029416792,4.202434355649186,7.986139973748805,-2.5904553406949575,-25.260644671247917,7.401257167951994,-18.874535144975724
-0.184,9.955215018086077,16.835475293096124,0.8568878145571786,57.45454154299266,-3.465714861209718,6.72251898525778,13.703852611801393,-0.5590587469589585,-31.794564484951202,1.6397466684600566,2.3474734856450667
-0.176,-12.09199286928989,28.594642476937786,-7.8132996859150925,77.6625577682446,4.824378827963253,-10.680788474260487,-9.942711700021249,-12.428707322819346,-38.71014720254104,-6.1345202378922155,0.5418346781982102
-0.168,-10.589959360013774,31.15568678967791,-4.1750598376995125,79.39753329947135,8.607173545012571,-8.069627244742286,-8.908875550713926,-10.957377104024282,-44.478599847484254,-12.011181008535596,-9.984241557319972
-0.16,10.029657532365457,14.583771943851133,4.1602067187171095,59.64941144823755,-1.4334705518580912,6.5161711454897695,11.954683837571244,-2.8657736239897074,-50.34962607697116,-1.686188442667109,0.40210650857052355
-0.152,-4.07844589797649,6.5781357227472945,-5.607179046034154,51.4752015618669,-1.309122482078359,-1.686514034591498,4.690040389442194,-9.241909347724118,-58.84163356037295,18.297184851138123,8.733731875776941
-0.144,-41.339121616028706,18.3724663822699,-17.919257214207555,50.561725659985,12.898052482913926,-16.791898977570224,-14.96546737309432,-17.802161234247183,-55.7216527422847,22.01919288277687,-5.800242287659078
-0.136,-35.52895925432685,25.1896597695721,-15.086393936610232,26.054630951189015,14.094651162742723,-10.186220578408285,-8.368580080365547,-12.761184531967936,-33.06270710885323,7.746784174748236,-16.008311577741054
-0.128,3.37886983451488,19.047157783624474,-10.22735737543953,-9.599472577883331,0.47930443949587204,4.4930663405849804,10.635425683520587,-5.212341105889406,-15.343967973204093,-0.22608393821756825,-7.605787692349944
-0.12,7.710077867705055,14.729824048210766,-11.35095757202335,-21.48758273379564,-1.8425675138345223,3.2556087367238504,8.993975571033976,-6.331354659359762,-24.680631445211304,-0.8845934826793914,-0.9194984343445106
-0.112,-15.647735692788524,12.636125859802322,-6.795842043495469,-19.12464978858497,8.656328279542752,-6.787317286557799,-8.804945050755903,-9.352685234939326,-38.550738944314375,-12.592523456904527,-5.512893183762954
-0.104,-12.545091957794664,5.947544854377506,9.470492214830264,-30.487730992854726,10.483675134290879,-0.8785653125967793,-7.554810751170283,-2.972436317551048,-28.236214529030708,-24.22599598361416,-13.31896046536524
-0.096,4.408972311598882,1.64924809149682,21.232664323778245,-42.88095370512869,3.7508820038544717,16.016349532602227,14.4110806631366,7.235057055186731,-15.721596457563699,-18.61421753172585,-16.107032649012933
-0.088,-0.7288562909009809,4.070083107709903,11.155687118988247,-35.087541343245405,3.816889715810534,12.885897845038071,15.108820324265677,3.7225938337217275,-24.16243807531301,-13.441949028247643,-10.442389455806335
-0.08,-5.256134613796361,1.892206933804268,1.3134961563847125,-27.23171906629774,5.062973012902484,-0.3465954090485906,-1.907098007657292,-3.938952507547354,-19.399136560459453,-19.601480020085067,-2.263653953690233
-0.072,8.387047547764787,-9.101481051950447,18.163068665627968,-41.32966454125903,-3.159518025418756,10.038080894777744,8.134942070598022,6.519909271749294,12.640444134445747,-21.794805422411574,4.049266742227366
-0.064,8.408201542590886,-12.996704441062562,27.854464374181553,-57.06036975859423,-8.044381752442176,19.91295364209649,22.092227770061942,14.52377333451527,23.95062016039187,-19.888069556615186,11.316490257910692
-0.056,-8.008252259248657,-2.801968170457653,2.32733667450935,-53.45645675458119,-1.2518164622446082,-1.1653352996160933,-2.2016941859112427,-2.0800589946241903,12.220400836621614,-16.57925837810938,11.152870815925782
-0.048,-5.532411576254759,2.263812943772536,-12.831757484188532,-46.94842544304065,0.6730332348213317,-13.512487745367645,-19.52582387881679,-11.369331114924806,26.594890346088953,-1.3225463362132388,-0.3188551248359714
-0.04,10.3043019655522,-8.799298304482083,3.933784722480209,-50.322964043790336,-8.669569458271933,4.344689587072945,3.4099799029161306,2.978493156030477,50.051749845744155,10.059801238826852,2.6299623363393443
-0.032,8.85911535288171,-18.887849023337463,5.053305705266034,-45.554983241609,-13.99085773177609,6.488457449591115,11.260337866157592,6.66975950580054,44.54627017906348,0.5093839172915628,27.977775385737978
-0.024,2.8789904558341126,-20.097853279071526,-13.734274827371934,-26.97377925348052,-11.189057853576598,-12.361196007941526,-12.064834377058983,-0.6741917949294788,49.141433328685636,-0.6516458893749728,35.74444972276549
-0.016,19.675953685236973,-30.019992374511396,-5.126116091003084,-14.680846407906435,-11.164477656243152,-7.797478905066103,-14.855012700752757,16.091326711334254,86.5215989477772,20.743724777603305,12.55858476212061
-0.008,39.060483213062724,-51.61710907762473,20.183279915357755,-10.349286185100278,-15.072155121381577,9.44434258731057,-0.5366616458940293,41.09661734709964,105.62784914949938,32.83860342969805,2.3906779182334876
0.0,25.03032324728527,-64.99811604999462,14.494417363673508,-1.3570624959192172,-13.889810978145894,1.4719886657159391,-6.9294876316890015,33.2579676298248,100.50707331149043,33.67286329308474,17.16931771853681
0.008,-3.249313759562748,-70.45035879314638,-9.97722151237146,0.21262184265654427,-6.921220432849396,-12.680609712157985,-15.884041777098005,8.34046346274184,119.74021441721787,48.52867323113758,16.005537627265483
0.016,0.1940906563184797,-85.9576293820142,-11.786444646098833,-16.26528374626888,-4.659748034571144,-6.914593867061711,-8.053753495442708,5.976633200429327,151.54081679148348,63.23581518372357,-1.1160192489832947
0.024,22.814521061604193,-103.75890523502076,1.820408422569456,-30.379095319123333,-11.222008940437323,-1.3480588246748542,-7.616424711966523,21.22180471767511,155.50643936442643,58.69177327217741,6.290867013022148
0.032,22.547885762401116,-105.11488059361093,4.460406109949344,-33.55210846440305,-17.17217257233684,-6.976552440993439,-16.62316429522987,30.823229562952115,153.04355083571733,54.405938079049626,28.65706903971551
0.04,13.296434899171684,-98.23914167427866,3.837583082505567,-42.23237705221088,-17.890612768506028,-6.104273319729244,-14.326318004907463,35.470049395022464,171.10217942851875,59.638719968725574,29.672017622098434
0.048,24.289786106557308,-94.36714684651122,10.524394433419022,-49.862008474636646,-19.668476009383856,-1.0604070127539358,-11.334699042488467,38.832395676031986,185.6708274971159,56.1882358574343,21.306494262345893
0.056,33.14820965978765,-86.43571152770711,11.201550090540051,-40.13758769612218,-22.166466847064783,-4.927709359615777,-18.28253667611396,35.5624615369774,184.8343277933099,43.53240557576491,25.59768998877793
0.064,18.670117701037594,-78.16048726459293,4.236998229404156,-35.039482230883536,-19.947472316730888,-7.620432001984964,-16.706908186478632,30.103655185274864,190.2584259925092,36.58970354542397,30.77426221751917
0.072,4.03076146446678,-83.23057184398142,4.3852795610181845,-56.0193089675193,-17.174542442491394,-1.1510799182487692,-3.420197455740142,28.664307931143547,199.69887288548085,32.57073998219087,31.971371782558695
0.08,10.278111660077423,-94.8722855318784,9.666920248644491,-76.79068368169732,-18.349088655144637,4.4047708607850335,3.6700593059221567,29.598957186589814,194.69247460170254,20.930580278065953,37.08310509028195
0.088,27.614849469286195,-98.45088303896938,10.324076854809238,-71.85219710787672,-18.903003555325586,4.555979155675379,0.5461932484749658,35.62664000078185,187.36695821801527,7.208676666309897,37.08614378951847
0.096,35.09333388271451,-94.18814931427808,9.47769126078929,-58.17212845888113,-17.950825661216598,1.9228289987984053,-6.756486833099073,44.79769003372916,196.43944114931708,4.944831367527009,31.345145273135365
0.104,28.401615905877524,-87.5444258507569,9.620384823484363,-54.07428254493608,-20.698124511024115,-2.2309859069014,-12.315750228333378,44.49702977365149,211.18882846954736,13.225662535414601,36.06546904271698
0.112,25.76781255093724,-82.04941752705452,7.268818954345672,-49.53224425262722,-24.80694827681025,-4.243722787145726,-11.751218897921985,36.10967054752734,214.97515547908844,18.327877194945476,43.888444512235296
0.12,29.707338271723042,-80.42873952299756,3.7475639409831514,-35.72278363749292,-23.44197182520101,-5.144069322931428,-12.136088974038167,31.34339058583875,211.63426809226402,17.65385565872514,38.834378324242785
0.128,19.20215840529271,-81.51776232276586,2.160992876121971,-26.35565308178459,-19.679873836970202,-7.521709173010992,-14.294832369774308,27.94177673209329,214.3826910335906,21.660471471924243,34.64503416755869
0.136,4.681170368811712,-86.0336674711779,3.3575019861126485,-34.746070522473694,-21.25841810563673,-4.8344539505042965,-5.9767911666450475,22.91462800623586,224.88296440088405,30.564460729707186,42.09140492053879
0.144,16.5406836768695,-95.14897575771272,6.988996828072389,-47.573078784436724,-24.954379902780076,-0.1656591422239224,-0.6416261678876237,22.698178129845882,228.7326884116411,32.426051109829274,42.83351103487104
0.152,38.73641578685025,-99.86188946474037,8.63083782737303,-43.834040934675926,-22.73228562255283,-5.229698720770844,-16.152633900282087,25.829444154037734,219.1742500092378,22.40918529301343,30.945197526091494
0.16,38.43519879480068,-95.75198105150596,5.555779697988111,-33.07593367272139,-18.736128991048627,-8.197966152586766,-20.958497757648992,28.172058331633004,216.25499913763713,9.118865906735234,28.164895657544623
0.168,27.398416077213973,-95.17580156246127,3.3173944291596102,-39.71715306063666,-21.997407300083104,3.744702428310244,4.914286064775324,33.6073505873506,235.5641580207033,4.827374363800396,42.281334619201026
0.176,31.373320361247167,-102.9702063170958,6.643715857175407,-57.03680878780158,-29.13402481812728,11.127924418819315,17.451406895575918,40.090258804846734,255.62561287279803,8.7230840037695,54.831932956299674
0.184,44.15685837620477,-107.36375404678869,13.580274738170354,-59.708519274933494,-31.87387628683867,4.297130320510704,0.43994852484994806,41.27291977573313,249.87066115734277,6.703230533297557,56.453803635192905
0.192,41.76763672940619,-100.60135074683544,20.32283758738696,-48.254725961498586,-31.50389122115229,2.7198333989207217,-3.6473191314897098,39.69399806379846,228.0712897197322,-1.2344838267495524,59.86461294320804
0.2,20.81576321279991,-80.57147431059731,22.757892441141628,-40.8447293940606,-32.51463389795286,6.377619592101721,7.07425379789161,37.64411416552759,218.40518945088664,-0.7151371413144881,68.90911332995675
0.208,10.032230242939116,-50.131985917790075,21.32351612737707,-41.64980565334492,-33.71049279250281,0.761911729550304,-1.3924290899900773,34.92945778067776,229.68167084696634,1.9690218277928293,66.11426325728415
0.216,26.480521217077275,-31.331248446311093,24.494062855875484,-49.63754714183172,-33.104518822465906,-1.8701124605073027,-13.656628227067422,37.45734782218384,247.4396133518981,-10.240067600965498,48.08419463078381
0.224,43.427730159847485,-44.62816831097464,33.32008415353182,-70.28522926013083,-31.99074170764474,9.655067879670531,-1.7426864442916075,43.875207157302626,254.34878389008355,-26.30722399991537,38.65814399266332
0.232,39.31376539998621,-74.43123108503445,34.93690190580464,-92.8953161370271,-31.194055167023482,17.736644175766724,13.700608326986384,42.499064922744296,249.6379903624236,-25.090421008197723,46.511838238636095
0.24,30.126597700836072,-90.78667836019495,25.281954148470085,-94.9105376191901,-29.520924845113626,12.262486865497,10.569812685464678,34.85552375939555,249.65607879441177,-10.618281907651765,50.817602509187694
0.248,29.17987679465828,-89.48545695466828,17.74866994122853,-83.04665291715934,-28.467001067290315,6.35576610258854,2.599110182297083,33.04847096620395,264.5664193183474,2.3061493788871554,44.30236960533164
0.256,35.02619466297421,-87.73830397135887,21.8485643455907,-75.55160220959299,-32.37868675852735,8.757461545263336,4.442880678370829,39.01264838089351,281.8341806545682,7.852889711872751,44.995378524516
0.264,44.40152338081553,-96.92326016803047,31.216329223738036,-55.4506584779778,-37.669399575409486,12.924103320364594,8.997066723861332,48.41244192131422,284.3705778577803,4.213039215241223,57.20000430561703
0.272,40.32978753240795,-110.46862223882299,33.180603611398475,-15.857241677549396,-33.27444525048361,8.815891995194654,2.6632080269990217,54.99407436317375,276.39526872632143,-1.9536879159589733,61.592666977330616
0.28,21.77715238613937,-121.62005870188217,25.330465484757244,-1.1471444124539234,-21.40037445870036,-1.0762833228975748,-11.327305396765492,50.762678090241,274.6326794874251,5.8244706998392495,47.54802848598261
0.288,27.401077980908518,-143.08240453916048,21.51190730965934,-24.098605617640896,-17.511583925381576,-1.8167322283685459,-14.924849749061263,42.51689554470028,277.73918689140703,28.139035601499067,28.363152471902374
0.296,60.071382099149695,-174.49513637182176,27.922235280836855,-35.65770241683847,-23.35620462805339,6.053125701665117,-8.690301941590981,43.47715723841327,263.7543587568032,48.04951996709537,22.486015845866003
0.304,68.12098597524101,-175.06014404242651,27.09521332763123,-28.121105905257497,-29.090125545387103,4.244192487453061,-11.076742955973408,45.223432185219046,219.70436720414392,70.14525247688275,31.948407615292933
0.312,52.11789464830944,-128.94584524752887,14.727766705147335,-38.59489792282878,-37.50204454237168,-4.0698862338894175,-17.044625861204334,38.74754760660585,158.41023900042535,112.79698938865948,43.6741348549707
0.32,61.05372785967548,-88.03667988474477,16.496245362513807,-50.70020766858664,-51.23406655115311,2.098498711288171,-7.209308152508579,38.36043016561856,104.85359093981111,150.5422597372202,48.47507507865309
0.328,76.88954565613517,-84.85330644369499,35.81304288623045,-31.198744411359975,-53.60156597282212,16.70419317100578,9.297471027239341,46.15978874931276,74.25094941775585,135.05793416950561,47.28032657200462
0.336,53.334223903423045,-83.80483246800344,42.04222371099453,-7.333666961057769,-35.61587247236651,17.319112738760296,10.478273189551343,41.88265227468992,62.95819867251788,79.26650369614099,38.23787154144192
0.344,23.1820677151053,-68.60351616755693,28.435076681521576,-3.3857299525302706,-14.337650765905536,7.108767349817464,-0.8982695704649943,24.59985535122633,59.29209343266118,39.84611874197887,15.986653704332342
0.352,30.244009561130444,-70.12624569482627,16.403052244955674,-0.32513215165062964,-2.353279179247482,2.626900538807245,-8.350665819934228,9.892026210501392,54.04410043953615,25.60314408135073,-12.269122737227745
0.36,43.10870379197782,-79.72137159764209,10.501173402497171,3.9726670670923854,4.963240173124023,3.4063430545496107,-7.488039686775228,-0.4521361026060311,33.02987802662936,8.376938554742388,-26.87452152960182
0.368,31.726754975203118,-51.623690820416606,3.0602935121854458,2.254676334690922,5.583152167905178,2.237056571198685,-3.1419416283375603,-8.172668594683508,-12.696734919274025,-2.068377656885417,-18.24609174227722
0.376,19.574186026890537,6.769044606059124,-5.088700892558907,8.965213903187538,-5.093544046833437,1.817202211347745,4.907445746740178,-12.063843708247287,-59.68185915526543,12.946338078542354,0.9542549366890515
0.384,15.544764588747833,51.29658858371782,-13.317582639621941,18.584875918668143,-13.48202073857881,4.409301075428196,16.866729288127175,-18.60559140174322,-78.93700320832471,16.66050246878602,12.930817773588315
0.392,-1.0863823155830508,77.8064214582285,-19.576968093020763,19.69442748547941,-7.065670606372666,3.0657078040382033,20.2089008218032,-27.206184251234376,-81.62692093105139,-21.403631448946392,14.777287471115436
0.4,-25.052886016867827,101.68506832892837,-18.27147185374539,34.31448664774658,4.1763427981583625,-4.283632005064737,8.728054674729156,-27.11653699722894,-87.61629955388881,-58.79394046271754,11.143410050540986
0.408,-30.668971685987177,112.74070216205378,-13.865068840601998,56.8772781195604,8.693846310918431,-6.525580658275626,1.776179952375647,-20.660423162018983,-84.96499573926667,-61.85867976013108,1.0742367038860554
0.416,-17.3244528254207,101.16409755548757,-12.018601554041558,52.16327002174855,9.742976506496529,0.31154467546036674,8.696818978835537,-16.709453127891983,-63.57099748513223,-58.1351988599463,-13.5652536014898
0.424,-10.797353133697113,76.32346162630375,-11.03225101366914,40.26802992240951,12.897966910212812,2.1768565143041894,8.289841537793276,-14.793562061440218,-40.827697067561324,-52.2386229290207,-24.889948766082547
0.432,-24.984121826082728,45.886399845072326,-15.971618125242323,46.31361972862921,18.944550290246042,-5.721943130789429,-3.1002847260594057,-15.047222301287876,-37.71528966292434,-18.92606207116047,-31.89252733186028
0.44,-36.680161523715284,16.502333789619303,-26.16235005842075,36.74504121767085,23.90368871021301,-8.57486809108721,-3.7126329227247927,-15.990356382202904,-60.61454515072876,18.054639980794875,-35.88042000739531
0.448,-24.85185692239154,4.7844413142788085,-25.06840827352852,14.838486278327094,21.175738372571423,-4.9190134772691145,-0.2884347608656676,-10.572620532184839,-88.1033232498209,26.21189414088996,-32.54391540288094
0.456,-17.274298986934934,20.828874721548054,-14.21500377270069,23.774784747834055,14.97059390485647,-8.88384557021015,-12.160488213704413,-4.825352300194264,-84.4258422164922,21.968619901476583,-26.332917930479
0.464,-36.82333124952044,48.82658841004589,-10.787245545532597,34.90290062774316,16.419572067916786,-14.565182957101037,-20.425932764334416,-8.840452407934759,-61.789108405208005,12.592806187404847,-27.228228803296453
0.472,-49.76400196737947,58.118313675624826,-11.244279972037727,12.712427410927857,22.100276582762053,-8.810193454103489,-8.828834608670858,-14.725134989498393,-68.50147572815843,-11.99725460177531,-29.580644531320218
0.48,-41.28067263695311,38.53875131131754,-12.255304935214433,-1.6469873311275889,24.1907794700503,-5.108098349184043,-2.3226093993223373,-18.703893597020762,-94.39723056594016,-26.305338139661778,-25.418938549226194
0.488,-47.02935817872056,11.114402147510079,-23.655734614119144,1.3807489872902867,27.827329294759114,-13.778759770700749,-10.663265362984225,-28.02414005162574,-96.5012152323433,-16.099461924047457,-21.036005341493194
0.496,-59.81276777238809,-5.941249798942059,-30.10105652604496,-17.601169884679113,32.54212427678844,-15.203062268140828,-8.758317739219823,-31.410570589081708,-99.11832162877843,-17.98755758149179,-16.81227618575663
