time,C3,C4,Cz,FC1,FC2,FC5,FC6,CP1,CP2,CP5,CP6
-0.2,21.70691089399375,-79.45190310017189,27.154819180774325,-50.553694389481386,-4.204158794749246,23.185298064415967,28.903148893707122,16.616120484977664,-40.701129690132554,-15.158311878902373,25.801928457792197
-0.192,-28.13424793631131,-33.34486780602989,-11.042341019381206,-48.72069653748092,13.871091285067964,-10.749921330854383,-6.6205879043093105,-25.933480624768546,-80.43647389158684,-47.56891148754024,25.68536767998454
-0.184,-21.563152758071837,10.999233081774754,-26.000731967449397,-35.37870210640981,16.143650828661226,-23.178074688858242,-25.312959448475034,-38.22764061570887,-59.06614360896433,-64.15230457794497,8.373335256619473
-0.176,15.40489428518512,17.064843222195652,1.5390760145326674,-45.902081992368046,4.7645481337633395,2.5330996343896848,0.7273830942225015,-10.332744050185994,-24.243158793251578,-74.65140703034236,0.8886778281995704
-0.168,11.589392049378164,14.651837488292765,13.303766800465898,-60.30758087660365,4.711447532249897,10.957270828854233,11.613859376597674,-3.3756234348702785,-21.804320462193473,-96.02040664797437,8.255703234599864
-0.16,-15.147565568721586,29.76233447306241,-12.529796643693533,-47.89683840345435,17.9032072935412,-12.032396687499384,-14.352173670763346,-26.375071541631456,-26.623712066335866,-113.95455472053669,3.6019280664626776
-0.152,-16.840375353318645,32.77513932401371,-29.064704141210683,-25.974713682283966,23.958388393269136,-19.587700183190215,-22.203910517664855,-30.66413591248365,-21.42650532952657,-106.6753121496806,-9.0234308407229
-0.144,10.291913296854892,1.4751294625064113,-2.4057774309446884,-26.05024370311615,8.749968508799542,3.706889954504152,5.231667798658409,-0.8792785100763367,-12.457189363365808,-79.52694351991647,4.454833422975511
-0.136,27.714240734001756,-22.175153928353026,26.041831538642974,-34.52407574666877,-9.789750849226854,17.653513157279562,19.38091928984159,20.491825951843584,11.064993315386047,-60.52423495789394,31.398227983925278
-0.128,5.211633490012496,-5.512182828203867,8.657454038807307,-10.840856958039799,-4.409646551279483,0.6887129519609834,0.8930337204557204,4.672054438150359,43.6887361163564,-59.488634583205084,28.06797238912677
-0.12,-9.862430368396147,9.263852418406527,-9.494262071437268,38.05157403972118,5.811157709100686,-10.281594021343784,-10.23098843410044,-5.1530247632917545,56.96585110997959,-48.07546937069332,7.102499900834602
-0.112,22.111023743992252,-13.194052030264018,17.69620619524034,60.98385619551316,-7.606130477910736,7.686904594006734,5.860782143840791,23.37778375452616,58.2481703940924,-15.88068897269492,10.071790880994879
-0.104,33.03222341325558,-47.345275935352205,31.692324805652284,51.02316235880351,-15.625481219720593,15.922346018479853,14.214236767831682,37.14404140514799,73.73090017185436,3.779149722606555,22.023269681726134
-0.096,1.3345758708274418,-74.57961774453034,4.149072767013769,47.86142167859924,1.7645711970577087,-2.609895509861367,-3.7665055476787974,13.2365686227199,93.14895589077746,8.400088714418581,9.334993585616068
-0.088,12.663178107204397,-89.01485978612558,-0.13420038886187852,51.656768881745094,5.070183398220344,-7.997828531238023,-16.076465130439857,11.08193900280967,95.84134721369217,27.80102526788945,-8.845277158291413
-0.08,51.94032719793161,-63.57591340729243,15.562072558457626,32.43428800590812,-14.506110649291191,7.494186246940497,-1.8463076555415272,31.683737573432325,84.89947607990624,48.733656483614226,-4.738858958539465
-0.072,28.69657693309686,-12.70337502488432,-5.174544957489711,4.288971318342615,-19.658285792127092,8.322872631617257,13.214880874274286,17.97808597789153,71.90120801248294,61.54746471093096,4.729750645355763
-0.064,-17.080204035685906,5.458051701124503,-27.496465977954113,1.0225715514908125,-11.793281100757165,-9.394097664288969,-1.6680533905216706,-11.887485173625704,61.50853105121763,100.15139279795387,-3.497046520589589
-0.056,-12.652251761127971,-7.382298444592747,-7.281052245537647,16.677256852666705,-11.344075678625499,-19.89879485138722,-31.877635031368108,-10.994744777119521,41.74696774490884,139.67064598099327,-21.543893356605007
-0.048,4.181238550612233,-8.918615615929163,17.222038678094965,28.620905938167596,-8.478765192933519,-11.630473263131087,-32.140611551488114,3.5716200607258117,3.5862740194018636,115.69988839220882,-30.274884248188197
-0.04,-6.230806295077817,-3.7433282878328664,14.892482138228612,33.56108499720306,1.1865178524740898,0.6293014672031333,-6.957042619115462,2.3351177163940764,-25.041547105527155,65.43344003694779,-26.562741801113113
-0.032,-24.730256687310238,-2.5249694194570673,-3.88491720327258,31.261604428609306,8.371735909167379,-4.738072992424016,-5.276177041043486,-11.814027934823988,-28.143255447059566,60.70832675795369,-26.9310873078527
-0.024,-28.757278000779888,18.53027366175329,-18.550569098492048,12.789049441841906,11.070100610702589,-9.409976221920477,-9.747974105993814,-16.780901313359614,-43.72131450185391,70.00821985047614,-37.26491129937948
-0.016,-10.070468863050005,62.09527126685988,-7.044876429085559,-14.69252899542878,2.1150449712746604,15.515272989002103,25.268723942094702,3.647596677476381,-84.27019727678753,47.04181943735933,-32.02134728083567
-0.008,-4.130548362157517,107.42528830250014,5.156754229311997,-19.7805461635129,-12.5031771667862,29.845859698051445,48.741425847099826,17.176409325089814,-111.41111364400311,23.413246316542843,-2.55727389125342
0.0,-50.678542576337634,153.96515895652948,-22.963659370412486,10.390043866236212,-5.572750149942177,-2.632702290708409,14.027330299879528,-10.594742339239575,-116.98534993946767,9.288815427429949,13.470473649157606
0.008,-94.06898731061499,199.37853542574973,-49.8100159305228,45.03746773941643,15.93012070390962,-26.517801871357957,-11.623089388211168,-36.06191291681993,-113.97979441344974,-39.42360978030727,-0.34011438331563465
0.016,-75.0922027964801,223.63332771848798,-32.74317711725845,56.71281958869584,19.51487298218941,-8.919781894552882,7.275262098703002,-20.595914094837717,-93.23048582414903,-106.0391587675979,-11.892414390530435
0.024,-45.70700651920261,223.56040689902937,-14.759772960499815,55.91533899120738,10.852383459255202,4.7286496158397915,19.29101580595917,-2.4195107007587837,-65.67798394588648,-124.21423394594525,-9.810127637502429
0.032,-49.46007633105329,211.77558604195474,-16.61100472291803,60.50458122998862,10.805731085599788,3.9267189127817996,18.71654092386788,-0.24623734423186872,-54.73814462203202,-102.45806496255048,-12.575574718796554
0.04,-58.00463609446712,191.37097849994308,-18.967412047963084,75.08989743636143,15.548228772413456,4.217536984670275,20.851820776564924,2.977542669823468,-50.858397864365486,-87.63225924410439,-16.944734044276444
0.048,-71.25422145885,166.5123986468149,-43.5110482025549,95.3245523896262,21.79665535352809,-16.54597857394727,-2.700792386107988,-10.425082935547161,-49.82845321089124,-61.019301350667504,-15.610763546965789
0.056,-100.53754388611296,152.40752098014153,-81.1889119465854,108.29471664249861,30.478978833312798,-45.157964912239756,-33.06648941601495,-37.62866956269391,-58.38482076659701,-6.5017991882788495,-22.398969157947132
0.064,-115.94349237845283,160.28273878758947,-76.60913980768008,113.57665417211703,31.83751975014431,-38.94365897560883,-23.75314764636947,-35.14931292402678,-51.635141522360755,25.51822475128268,-36.7421800044751
0.072,-110.9437534189002,185.507102899951,-54.36190930265412,123.44922461595161,26.501250469662036,-22.107330029760888,-5.633576277403833,-15.345035100272934,-20.21357081833425,17.559900203749482,-43.521235092663765
0.08,-107.996339514639,206.83365350999597,-64.82304916103448,126.65605131890293,25.875844575823177,-26.77057526602981,-10.653172929520547,-17.575945480087448,0.7260900991595907,9.498592312368132,-46.97110075021581
0.088,-106.22425604793006,203.46792500290232,-70.70224107214054,113.92486011315374,29.246245443156376,-27.84426413776182,-11.401409128671961,-23.589589554575593,-0.3127838970253357,2.7359576686476745,-52.89908928687328
0.096,-104.79430760297174,180.6684751990092,-49.80772806784326,112.79457033911032,32.28283950061956,-20.10266060947493,-6.415744643963857,-15.912297946362832,-6.989549317833141,-19.3349174253379,-50.370148508310436
0.104,-109.7699290354263,161.98002693660155,-47.286682791874874,128.53914693151577,34.69643950358564,-24.359664234333508,-11.933845286696581,-15.314701046972338,-20.682205647878387,-29.95143501273188,-38.07083545179886
0.112,-107.61788665438304,159.78160278329074,-60.82242915736512,126.45134328135516,32.21370911086528,-26.2752186831982,-8.234440599087364,-19.809965800602853,-37.19039864255831,-21.427720870934113,-28.632419615744293
0.12,-97.13449973894856,172.43597993560866,-54.12681998303836,106.23602011291928,26.355451432500683,-17.143886088100352,3.2034455553010934,-13.762945839105326,-37.73417558224538,-27.746698760345033,-25.99726498002519
0.128,-99.50910675079089,195.258037320333,-44.42408737103071,97.30735881434747,25.679119653495462,-18.535160099539166,-4.22079648801843,-8.333739505564708,-23.895415055492442,-49.63544842142825,-26.01223987545552
0.136,-111.13041649802095,218.7342912683482,-48.86011393106615,99.13182848659488,28.160317676796396,-26.359925985910216,-15.114572673242936,-10.480160295244326,-8.829957958894095,-65.29922775860496,-26.02004174785664
0.144,-111.30114269368019,230.96055854544412,-47.16018621108197,98.93522424069789,27.58877191784658,-22.859014123110633,-9.026775488147358,-12.295320449382166,0.8789346256123157,-80.58865522894781,-25.579661955864175
0.152,-102.83874407741963,228.70231473854128,-40.54207579485154,96.18479410406736,26.964474995119307,-18.82234453799092,-5.285306758845336,-15.762410289017835,-1.3121725444226493,-92.76566070036971,-27.43190129314395
0.16,-94.63069315541847,220.05931794952602,-41.209687738993786,90.41654933385067,26.47865486697509,-20.491766283843468,-9.360130868233998,-19.288381273290344,-12.072561390783912,-86.80813015366697,-29.973783203382737
0.168,-81.60343232095191,216.97057850607396,-37.12971475191973,91.26871797200624,20.629837348073313,-15.81183428277996,-3.662297497700498,-14.453748148859503,-18.186901471285278,-81.20402438143988,-24.43887524185635
0.176,-70.03459083013493,221.1911296165108,-30.46837005424608,109.54318396599061,13.589687723994887,-10.792671167943366,3.309160925466609,-7.959773411410994,-13.54449188665614,-86.29236668912489,-13.742572729193668
0.184,-73.15111370112638,219.04204712072791,-35.51272847028756,128.48094108359663,13.090900804790637,-16.00475754187572,-3.1838305633113775,-4.325997707539339,7.666506992940466,-74.61256404934394,-12.829280498718724
0.192,-77.82846384302115,202.55923856324398,-38.82746216238441,133.21929907950096,15.373127194444528,-20.22973369547224,-11.432147617051404,5.023465349845216,46.661311801209365,-50.50032686049776,-22.102231562690516
0.2,-70.09751747131212,183.1068986706658,-34.59877847679289,135.1838320424593,15.279750494810687,-19.068132109469627,-13.806319067012858,12.29837255337368,77.91802456370658,-41.55574159062871,-28.83799433792758
0.208,-62.463692465995315,166.44299914475414,-40.25684833617622,133.46586939742892,13.714189338906833,-20.97040398899464,-15.132996555672955,7.0731335395213755,75.30064016242443,-27.005290653932192,-28.361858988465308
0.216,-51.97592179520644,142.34613313230517,-42.62517583752481,113.14808358621556,6.568755029305837,-17.96030690123832,-9.577414757446384,7.571323572544467,54.28738831727639,12.195106282257502,-21.937096464134672
0.224,-25.06181791483968,114.74979553270221,-20.701121905115595,86.10869633914959,-6.723501981616978,-5.817249801403669,-0.9369672553730083,21.626814409454347,47.274213023332265,42.06315536643626,-14.837333605220424
0.232,-10.2816124715259,101.65793048453578,-1.1903762941751481,72.61594833330695,-10.705842871719392,-3.3053025768378497,-7.45991065239852,24.904875622134124,51.60116606112504,43.890900884699946,-18.47270267450605
0.24,-28.609721549755207,100.20494357179905,-6.24761008013148,65.208734298047,0.3733263119441806,-11.58371202471802,-19.169547129132482,13.178521865083555,43.57188875948674,33.68545689343288,-29.689127180660247
0.248,-44.42422329254905,94.95165897218612,-13.81430213645595,52.08494239601373,9.886356427386833,-11.889928195195873,-15.02334549715649,6.624541910511392,31.677423700169673,13.23918635142486,-31.587439722154766
0.256,-42.78909492589845,86.53297138554288,-14.230058758894204,40.209384957616834,12.070603260011527,-8.566890707431025,-8.418890367481584,4.041031867867504,40.91527608896853,-13.608468192790726,-26.865915640791975
0.264,-48.857791974994065,75.35809962608882,-19.333717134694258,35.11384695025431,17.13072790520987,-11.053209136785933,-9.900547144639482,-2.4608272603158405,57.436143398061304,-25.105764272248535,-29.355791809597562
0.272,-53.265787317385495,49.703971879793265,-21.251426264359445,28.745847132227237,21.89771573287297,-7.307143975644154,-2.3258891469883953,-3.538655644351507,53.74642279590979,-19.686866512756964,-32.548853447290625
0.28,-37.678308405014775,16.282172053341387,-14.213066351319581,14.832711503406623,18.99809255353356,1.47257211990531,9.154836422841079,-0.07146875195255961,34.17558218260247,-16.156361325888955,-25.642858458291485
0.288,-25.89763816308426,3.9400069078977897,-14.129887621353193,1.7145251565433035,16.105776041084255,-0.6252323777716042,5.443458518319809,-3.4381232144085443,5.394361874646177,-23.174061955683555,-14.195032653228795
0.296,-29.1776674119132,22.946426129480415,-20.054967593220457,3.293484465547639,16.082688232721885,-5.2166110696388985,1.5041146756614998,-6.954612831172523,-27.75542919219257,-36.23478309835513,-5.152894935014634
0.304,-26.406681573905495,51.22880937967353,-14.384072401479607,14.782857688643094,10.75833050585589,0.574723972382581,10.065155923998732,-0.598692737211506,-31.98385698567531,-45.44301495747957,0.5865310771289245
0.312,-17.28518985813662,63.77656817974408,-4.16852337983447,15.43441771853995,3.432389423764117,4.887428520906682,12.465196463171832,5.992105354627194,-0.1720555163566538,-47.2970339011077,2.343938190490365
0.32,-19.45547961950514,57.67318048023525,-8.325683709468793,10.033175695357222,4.805384226345775,-1.3028686009580361,3.5759526286830163,0.4059596571281278,17.927674201061947,-49.441712803201206,1.7584197806764135
0.328,-34.00396001136555,47.82182439523433,-19.419471221432715,26.710235704854895,12.735132471586777,-10.81800495445405,-5.471919214258317,-11.326773148559985,6.005798314016468,-51.50539832275934,1.0437480535082226
0.336,-44.8495058638537,45.44262586615503,-20.56004586826918,53.229525877054144,16.461223981124064,-17.244370880279167,-14.169522676433004,-12.686502069281305,0.46501733214825824,-44.860024420048624,0.3125217220092443
0.344,-34.89423173195465,48.623208304051595,-17.88476792732798,46.06201663777883,11.5956217990592,-14.079957764372155,-12.350744739662906,-2.1240592622863024,5.931498495767113,-35.547607870680835,1.035980366690033
0.352,-13.37106991340986,53.15751976784365,-21.239056711130733,17.557658717893688,3.8832854848710965,-1.5104523197398398,7.56203932346108,4.2932671793743165,3.6040937268087516,-34.70425998740838,3.8593992377432182
0.36,-8.765146420503592,57.50454162835387,-20.239523830523556,17.55121844763579,0.9954523426623723,2.236518782081052,14.19134952738573,1.494478571260295,5.947797308247686,-35.89608012315989,5.219828971143152
0.368,-16.890533148230585,57.80068102643602,-10.07489520957375,36.064775148035515,2.7003447414527306,-9.804369530850485,-10.590243170366197,0.04190185935052811,22.467779832024213,-28.558555461556026,-0.09869593484752197
0.376,-12.70989944468794,51.191272797849976,-4.972103180889472,33.03545863498367,4.39622277109383,-16.454390767920547,-27.76616251817733,2.065119244414055,33.607277743951414,-17.85432180013442,-11.86666865022131
0.384,-4.500260696042079,38.76648223106342,-6.52181803622692,22.82298558314163,5.0529008792999885,-7.799237739979837,-14.048957037166216,3.4812691077684823,30.206551147921623,-12.978464637803462,-18.173032752731004
0.392,-8.208265792965971,24.23401957102515,-3.8822004454402306,32.067688453716656,4.67520281021646,-1.7684485342977658,-1.8502102714095383,4.68334527980924,23.268150557192325,-10.361805711492883,-10.633216379520142
0.4,-12.79694103268349,17.50152091797127,-4.017681543745772,44.544177186344434,3.525038813495701,-7.872763527863598,-9.83767025033864,1.456443639148294,18.848932997761732,-3.833041718258295,-2.3315148646890758
0.408,-12.165357720836266,23.72630420296338,-13.245836823623216,43.35167141872163,3.676089494226122,-13.415893726554469,-15.849248394561565,-6.78673293842697,16.215666426406152,2.288516598484733,-5.231381968186843
0.416,-9.753076510424112,26.959282874848284,-14.97388703613193,29.18126515768807,3.1143786786124195,-8.33274281673602,-7.239044493301501,-8.349388675064732,16.09791196383767,3.9306777331709633,-9.249814695230318
0.424,0.48606915470034634,12.644236394786567,-4.175119533991226,2.6408202626274084,-0.9371779667013221,1.6554978252891708,4.368097518405017,-4.093640707520742,15.058475708204094,3.3592489009685744,-6.2912051455319
0.432,10.558153610074086,-7.171013690771203,2.503376567494851,-15.297583001198525,-3.263446650345013,5.127859145355942,7.570979776366277,-7.606328333934006,2.0337009021883987,-1.0291317982452097,-0.4028003276262646
0.44,4.469702623345804,-19.109579210389565,4.081447893343139,-7.5996170695759915,-0.848418118503922,-0.06462780993379258,1.1613799952824482,-14.980864335643204,-25.86940765965473,-9.54460492893254,9.482266635619686
0.448,-3.979302991122921,-26.494237676885817,8.570092948613237,-9.774649080132415,0.31680410771938833,-3.3755737318449044,-3.843914447510006,-16.066518640848784,-51.39606707204541,-14.632981831068502,20.141733331697207
0.456,1.3921344866191774,-26.08321865620339,8.287050320529126,-41.43358814217697,-0.8505687529635306,1.3058937067709944,2.207889766159496,-15.298869637193683,-59.55587485885599,-15.27517971357787,18.23201676999303
0.464,5.931498556311233,-11.552525741820956,3.595613658497676,-53.076150635403685,0.4605874086809657,4.231851535658359,5.904767183768688,-13.841477726016137,-57.20857783686933,-15.995013678988846,6.415036773450457
0.472,-0.2653005846502132,1.3097273250950188,5.452431664754812,-30.06223172956779,2.6856381419656787,-0.21809241699632853,-2.8744904158968914,-8.460116697682812,-54.56959470806583,-14.280143430397017,1.55585832996543
0.48,-2.6412692097540753,-4.919846657067004,5.476469645314025,-28.010463222979414,2.4923190395971946,-0.07735562665934152,-1.4993194020768097,-6.2428009658035615,-57.23906882709977,-14.966712711302344,7.540305214651975
0.488,9.128912640013981,-22.493243699575498,-0.6692607369017856,-52.95892059693993,0.9449959495782422,10.258912298744598,18.99385193418169,-6.705152197521326,-74.78428847893124,-29.402749024584427,18.000588978474557
0.496,24.782575124373054,-37.20317058913962,5.040815789623373,-55.77818000687353,-1.4033967083316052,16.542730601801196,26.6621940722765,-1.4471039996473143,-96.79186483776219,-42.54134695775022,26.459456405878132
