time,C3,C4,Cz,FC1,FC2,FC5,FC6,CP1,CP2,CP5,CP6
-0.2,-17.761352593693534,89.10014312714921,-28.23560047757803,56.08434702801345,17.089021864109842,-23.41342860686589,-32.06156758371963,-25.784459797179327,-33.9525742656967,-13.775930001478425,-44.29763235838965
-0.192,-28.560692549152087,71.61104751200155,-27.68460056680548,48.87830291339528,15.96165318046525,-12.814349850088558,-10.717771893186416,-25.787712532464774,-28.249272232202106,7.148590949656878,-40.82998408240664
-0.184,-37.02675706263863,59.782792551792404,-28.365713840087015,54.7128290675454,15.39658016111359,-17.582882097499148,-16.563004952051394,-22.842689097979374,-13.196844836937537,14.76129909369264,-32.21377077475879
-0.176,-30.433761446474954,63.092325794076906,-32.98122834010363,85.00974152089717,17.014233353399938,-33.07486692252115,-43.68521230878012,-21.338544342268637,7.21060949149347,11.28561575983138,-36.31336546912352
-0.168,-42.82301861725983,64.76616562485982,-39.28011584706026,94.10411550118789,20.69647283445929,-32.76224599811061,-37.37837077488757,-29.91592271062157,18.933102437323708,4.511263576269573,-36.77323671804018
-0.16,-52.803066109905735,50.68073141375451,-31.090360639847308,72.67741145284366,18.70327752020893,-18.812943379325667,-11.43224262610769,-30.170696677011986,10.149798644470504,-9.381193707742336,-19.12248636814349
-0.152,-12.628112265531342,30.770137599144824,-5.669490689902044,52.16136165236107,7.746423155673348,-8.954332660432414,-11.14385648431888,-5.295674562028326,-2.766579489839842,-22.849786788812775,-7.418024340535778
-0.144,23.713034608176795,21.39401597241003,10.630857494806286,38.24838965946533,0.6468927723260591,-2.9912739082193265,-15.95575825513131,16.460041839361896,-4.002837520048668,-23.121998437362063,-11.81815506630999
-0.136,8.512744178020245,22.473543858734523,7.213103451031717,28.11550767002653,2.1288335507624563,2.6493379095426848,-1.4323671586975568,13.185909061485953,-8.552243419433776,-21.810444195205484,-7.349128250131741
-0.128,1.875983071058228,20.483559917286783,4.2189839599471535,27.07457988731074,-0.6016987310109613,3.4242115678373275,5.805821556558771,8.52747935170489,-24.02329477255898,-28.130645894758384,10.781098032521381
-0.12,21.609776443130762,10.3135567696155,9.117537793741723,18.374917538947184,-8.470731484634115,2.7852556407634914,0.7703452910045826,15.043843920112579,-29.772821369605182,-24.325303259659155,21.670207622099483
-0.112,13.98190906683497,0.307075394655968,11.656522424503843,-3.5124615303641105,-9.840718349393965,6.590330089028782,6.935467247225348,15.949253596714412,-20.948846074160294,-6.138940478462748,21.723292124674053
-0.104,-5.44846654685508,-3.8194366892330853,11.012052049882726,-11.48223307537302,-5.305637901553204,9.279498705772031,14.588662581161534,10.16461336905276,-20.471458894413015,1.7271807689419556,17.946761023339835
-0.096,1.0980542496716617,-1.5514273911911898,10.202637863548897,-14.431654754778704,-1.1122756380888823,7.817161584760519,9.760891698290518,7.092325595610247,-33.891073125620096,-11.355879853867487,8.725121314827453
-0.088,7.529467896648535,6.324127323431613,8.896004766115732,-44.27024050453882,1.5024088471903947,8.288228682927153,7.7077279324645565,3.3189507630673716,-40.55366483631014,-28.03914924723786,0.1653507645274752
-0.08,5.966074751445698,11.677038079397848,9.390146439654785,-72.45996959146059,-0.48488170124004515,11.757320071370883,13.947453798586404,-1.4836671180917238,-33.737918007123504,-34.0714726686542,2.298456029906125
-0.072,14.413745322503303,8.299045649376229,9.162635354756848,-65.03742278285233,-4.615402396598112,14.607692583928044,20.075758378303043,-3.9877120530652057,-25.766351660743478,-36.139290830546706,8.192092457790046
-0.064,14.64851560652806,-1.409710043340272,5.158183669146211,-55.0566609270691,-2.474650759362651,14.823453179836578,23.115815642790174,-6.683734696105813,-19.79167559430759,-43.45861438427621,9.598386671857611
-0.056,6.471332015605316,-19.995945812299222,4.2084615371046645,-63.71888249704216,1.2741835210486516,9.89052633872344,15.437046590715639,-5.48113494536965,-15.347996235687953,-43.48530540962019,12.552986199048286
-0.048,10.22371833418068,-37.33294769202674,5.8193448868294455,-63.1214199659564,-2.1288666350586545,2.6810405481696455,1.4652246990715987,1.1158982546342258,-13.451075500420563,-22.273057649879366,19.0277916095476
-0.04,5.009542775838108,-25.14028754537192,3.2378230928683003,-49.662047195335596,-7.6785514574008165,0.9640185920325628,1.112211063514089,2.7196054194067676,7.169626804715606,3.6101333990324016,20.889554632969904
-0.032,-3.0026857566127663,-3.7384411678744054,7.999293448857693,-42.87366605819676,-13.165872915165481,5.641518222223089,8.60561065798971,5.784246130382822,57.30096386561824,18.03889902065776,16.932227260392896
-0.024,27.020168246503825,-31.798353081869767,25.282355993940975,-40.67106149606003,-21.932528974043198,13.870028760202624,10.975232683892278,22.090131565116458,90.26372106052006,32.294558955255496,15.235914876481308
-0.016,50.63562723648762,-94.91041246971392,29.225825209378982,-34.47182083770731,-22.90084755453203,20.37968072175162,18.466523295201203,29.07926021398895,73.91153005493847,51.12887795719003,19.021053425632346
-0.008,17.150021072300195,-137.52049359116396,12.725987340225373,-18.5929251295398,-10.483070996375723,14.0996202631766,20.925512243241744,14.06763265087485,51.82315212650949,79.04611364929042,19.709134138283023
0.0,0.6281980731899212,-173.85785110360325,8.149353625042394,3.9209624542810366,-6.96424526629992,0.8573999610156947,0.6748466768693829,14.172756800672191,51.71402334951975,144.80447967774475,11.666355243940988
0.008,46.28459396870603,-214.46699248031192,24.104311997509473,6.734927033944595,-27.1533903703339,3.173369248648002,-10.733049500836543,41.84122223894771,37.72412942186135,244.89908949907155,9.128665290186255
0.016,70.37760931859157,-200.6712553591542,30.437474824150332,-15.169444928945497,-53.514128956434156,15.9742188145235,7.8512371183917855,53.00416215825947,-1.5254617067775702,330.54118459681723,23.79332797231387
0.024,43.06753108533631,-134.9364138063072,18.61015800628937,-29.237263017894406,-66.93558579092665,16.564323831975525,21.93720475147154,34.42201220302248,-39.943130198574124,378.78270982446395,37.74746040283517
0.032,32.29200276795707,-97.69999825370327,11.022210639974688,-33.14201315277866,-66.14853936099266,12.127323332087105,19.11436204662093,20.942571812504063,-78.2728360790748,379.3930162067054,34.96490420136499
0.04,42.54290691916527,-94.2316552881745,14.914854392686086,-46.81659830258245,-53.786258550509466,14.938805691726676,18.855058687389178,18.08980077180206,-119.41515163008744,307.8240219659479,27.752294231767838
0.048,26.943110487723935,-75.07207772382304,17.063798401275044,-50.8175401300591,-32.52582129331773,12.281736579617718,14.577542825933413,4.549601426190966,-138.63792918400551,197.32790679724727,21.715129001537342
0.056,-3.620657327613245,-48.23074782793676,11.350367090398546,-30.29693850873643,-10.720199920616741,2.59903664887803,3.1505587081620297,-14.432217611345996,-136.97768401699258,122.97520878836227,6.48377736368927
0.064,-19.879896765879153,-21.286830381073106,1.769236275997251,-16.27779159798481,3.0554132866414445,0.5170656850704289,3.6776396245776706,-25.861248966696028,-148.35972091827296,89.78144644539182,-11.940355598617451
0.072,-21.575774527771024,36.654320984465386,-7.615218604248283,-23.79145411659518,5.534242850853412,4.238277628779,12.982130054543767,-33.73546778726602,-180.5678966075911,59.656240742490915,-20.80519910697217
0.08,-9.004040329061283,107.64353843012927,-12.508513917853854,-29.952769679445378,-3.138839886028623,7.89302819983872,19.697080656914938,-35.057392032155605,-209.06840758704234,40.910828830431804,-19.1240242928795
0.088,3.964402187229722,147.73540140276688,-10.817415155967444,-24.693541443529856,-17.401450810660982,13.785422180855017,29.522234516397496,-25.03181056027358,-215.0608446410124,47.09024522613778,-4.743827693085953
0.096,-10.631382953008796,170.31545279236934,-8.504489929770758,-18.926288311435805,-23.702345702172426,16.27563939403485,38.237563111430966,-19.339895043150833,-202.26406262140966,39.82727217483433,15.816440202498534
0.104,-38.45823974923148,192.8401469032876,-12.085871814065719,-12.0279830638716,-14.781555541614706,11.836929530434062,37.19892703403167,-25.59835421463348,-189.16905143970885,-9.355891880745745,23.182800812756444
0.112,-42.42252099830831,196.73537759186632,-17.01968324741654,11.895412576695504,-3.0288418561954296,7.170758261149074,30.542409133150393,-25.827950324743078,-180.64945813364778,-57.82680893107546,16.93149335327132
0.12,-29.562896688059396,186.93269251115402,-14.317669705380473,49.74299706712575,-0.4968127589758916,4.457202769189104,20.834262796388863,-13.585720528456147,-156.07776199890031,-57.23334273609881,5.645923991806177
0.128,-24.913947745960243,175.09339294534502,-5.920110695540821,66.31379707507286,-0.13362739799565296,6.9659677067794705,17.529405524900408,-2.8055450394115344,-111.28214577845955,-25.94707596629003,-15.740144278337109
0.136,-24.00258160155886,135.76185468905783,-2.6475598092374537,49.157442757064835,2.7908992148502434,15.824782226015056,27.962542276124765,2.6051156239077944,-81.97233436455565,13.646023094679975,-35.59520894693096
0.144,-19.288784406080307,69.70915634558091,-7.286706943003048,36.4970564373844,0.0939734832369451,14.919206401330339,27.19096413033308,7.223305660301814,-91.83931850329844,83.85776510028046,-34.137148162079185
0.152,-22.026791301669732,23.880710818973746,-11.29513414284846,46.78146730528041,-5.3511344566375065,1.1744195639923536,5.610245640163465,10.48843082941322,-114.79507010582903,168.06433573326984,-27.7738537200672
0.16,-37.183926811412974,14.726293169790155,-10.410304280427633,51.32186390347544,-2.7492567628598743,-2.8090877561567296,-1.375816153439883,14.621816244280131,-117.03037914814212,201.5994238406413,-34.086627554226155
0.168,-49.655178219473655,24.412720425072134,-9.515181584741747,43.19915693139386,3.0126584943154486,4.792238730254049,11.891768033227732,19.323158792503094,-101.38248492124298,177.22683647183266,-38.30171313227449
0.176,-45.67417435868729,41.78836077512633,-12.162562487983351,45.173742994649835,5.562641470137086,4.064802695400241,11.660164978872645,14.73430002081146,-88.49406473086772,134.96853438080976,-37.43077218642493
0.184,-38.70867885217021,49.69909851107848,-20.366547783005377,57.1465867164046,13.371883596522883,-5.9281772145843465,-3.3174303083235843,-0.17449928200885184,-84.59092962874537,89.14069800596873,-44.0895896848927
0.192,-51.0168356502251,37.75224276639882,-34.69965344225822,67.50225329396777,27.890828309598497,-15.2027440366437,-12.01284345726401,-14.735069625458928,-88.18591829825786,53.332954376990436,-49.808288347163476
0.2,-70.31474822171252,27.749195164356173,-43.83818423353196,74.16532727920814,34.83590947972595,-19.376186270116985,-11.146505935089033,-23.191402089489227,-101.45072947753312,46.092126851431466,-43.74268945266272
0.208,-71.29291817848399,32.32039964426206,-38.07313684664796,65.59911501027703,28.758128579945573,-14.182427620178233,-1.6961003952159261,-23.580319988469206,-118.1552055034906,48.946058199258154,-30.54155286870817
0.216,-64.80232033593838,40.02427775704517,-31.423679479448904,42.5347800876097,20.82089165874147,-7.314741100646232,8.349367931898342,-18.119192131256984,-127.42747008429974,40.722572964163,-14.858882613011977
0.224,-69.16352987223736,55.015111218374706,-36.78359329460326,39.574396861492815,19.761884137784897,-13.081705258646744,1.6974978765334483,-18.22920222670816,-131.05633007313995,29.84628463581552,-5.808602680224626
0.232,-76.3351391893806,81.90193230076473,-41.09751017974278,66.16816094828984,22.680563168976626,-24.01283866714632,-14.371921596744341,-26.611636569568788,-130.74337302251283,19.25803880340428,-10.571902163303184
0.24,-81.42708131199822,97.97417248656505,-35.78152305263334,80.87569170711306,24.16904036019452,-23.400008135342397,-14.523872357140686,-30.683980677691213,-120.98880795517277,9.891205844301576,-16.9495869509225
0.248,-82.67466778683004,92.13064552786837,-30.54567419165911,67.78965738826612,22.964258735533285,-12.917724046025704,1.3350042924381056,-24.750934830871195,-110.95009501339626,14.680126535872853,-18.287726636688316
0.256,-66.80371891518247,85.87978036775401,-25.32194510671283,65.93723167989151,20.33177617994308,-6.041476026491847,7.609493471873554,-15.492877726213267,-111.61193155019949,19.596548523227003,-23.12827138369072
0.264,-45.93728445004576,91.97769638527878,-16.489618441542127,89.47464891354625,18.848690336223253,-9.89756367497299,-6.130730024140925,-9.696275828464534,-110.33369397384689,-1.1740972392721145,-25.799538680603813
0.272,-45.43328001900654,93.11776968261752,-15.037859036625958,93.79989366567864,19.318809377185634,-14.828809523960748,-14.479726753770358,-8.568447770857535,-98.6496010699712,-25.282775842080074,-17.481405048883207
0.28,-49.707505472646574,74.67139891380155,-20.962456426518724,59.45333749788651,17.579766649188972,-8.142864630945096,0.44348475578235513,-5.339156085422386,-81.84259284837843,-19.81563034385664,-8.667374338760057
0.288,-39.071383619920354,50.61215921717072,-17.476902090389416,36.60484521734723,12.126931900201955,-0.2771656944957003,10.31139179707165,5.043380562731119,-50.016851166664054,-1.3102620873360384,-7.355075700862109
0.296,-28.751578516102665,34.58687502288313,-5.874554156163276,51.84831727275257,8.054225076372232,-4.139907371340661,-3.4602645559388208,14.475037055080954,-10.537105729791639,14.230758781021493,-10.555960425509376
0.304,-23.300900116924375,12.17504696481352,-2.1163470716473314,52.92870454578157,4.660921985869903,-6.151224676144101,-9.755967815512207,16.27160557981264,-8.923989213468703,51.80308117328767,-14.094117398367757
0.312,-14.49610224027189,-21.949768150527767,-5.569014488702934,16.024304427594718,-4.006929397496504,0.8057639238635932,3.3921440310320903,15.570449110201782,-44.98175847975278,110.47611137665744,-6.8245073369238005
0.32,-11.495872892347899,-40.323684887917224,-5.085713026355392,0.339296975324467,-12.12659835717772,0.7439701349073388,5.358527316069243,15.141396303038237,-59.92583819268512,135.98698234835888,10.352458877673921
0.328,-10.314607172987385,-30.662369147403574,0.4530777542465437,24.4920239121697,-9.667309319454812,-5.836776654343405,-7.589250166622946,12.957379310549602,-44.33826375331825,103.71166744228317,11.78328995125635
0.336,-0.13318580399674615,-11.850394053917498,3.85912731225385,27.68254385367738,-2.0897755818966406,-4.426128642588747,-10.536335500276563,8.997826700067897,-36.06349213871357,56.71057071939584,-5.919643382336563
0.344,-0.45146601251509916,6.722335900776359,1.0154085698974955,1.1780810344234793,1.1572155603540786,-0.8681875198986811,-4.867089854280184,2.329281341621637,-32.47219020390155,32.62584291390387,-14.697998873680893
0.352,-14.504033447069386,21.918986954781317,-3.67392169422651,-1.8302548999083617,2.9198504807514736,-4.198468238332787,-5.8066447707901325,-5.0105112310350695,-21.656994079832167,19.960189987029825,-11.161131488698233
0.36,-12.860386115154162,15.832664830013965,-5.257158972796528,13.193540938691834,6.158474571522844,-5.350253738050353,-6.7276572394442224,-7.555940967614385,-25.05188285691352,8.443873532626286,-11.944682250904599
0.368,0.2773141885656123,-13.479601185341428,-5.304885395972418,10.105458807707668,5.818714504354807,0.1613948051067107,1.8651275397009732,-6.440371749681435,-41.771935524222805,13.048962267615952,-9.43799354147218
0.376,1.2305293342588324,-36.52495069399882,-3.3357858922630736,11.23680924237135,1.0897809114939863,1.436894794265473,6.097477400692198,-4.787049504172774,-50.39607989250361,27.617531535444684,6.1717135917937975
0.384,-0.7554307929299628,-30.819181083266876,1.2916970269982002,27.83129398656696,-2.708510556924146,-4.746267675824522,-3.7995251545249693,-3.495307529095584,-59.324876589671625,23.67152143511166,20.46047947695976
0.392,4.628806743078515,-3.153384269381616,1.585029037108717,16.066341907063975,-4.7934916582958715,-5.186297653850031,-5.63799483596687,-5.754119489241593,-72.068345120419,2.6252575867162014,22.325123589913293
0.4,11.693829934104569,26.711759913772664,0.23140518457679235,-15.358234016410776,-8.275014706039368,4.33888246601782,9.107794560520999,-6.672272902677651,-66.64520905103507,-10.84272284708046,16.805931981825054
0.408,19.1439917106587,43.16056098342158,7.838211409039448,-9.369388373944327,-11.970812535908543,8.10555334583425,10.193512935662982,0.2985867926218123,-43.714795557376945,-9.06703425829308,9.404517080285812
0.416,16.031164946604584,41.323442356850585,11.552153245636589,11.538693550528397,-11.49625681845899,2.0342585317963295,-1.9411254257552926,0.5703497311255111,-22.10089069295721,3.4903970779069344,3.183800683650899
0.424,-0.1027019821446407,27.59421407144096,-2.6908862475036455,-6.591544757932233,-7.8026452824748835,1.4641919433289934,5.969174742471088,-14.242528838835323,-7.129379730456327,17.43633461790708,1.0653523915844763
0.432,0.9470650711156842,13.393665296271752,-11.310739335806316,-30.905077277777657,-7.944509814548608,5.123760410679383,16.397164494881523,-20.353293162508216,-1.146464844070617,18.04187233691076,4.181527247065793
0.44,24.194758853679943,6.085827429494069,3.7746126761962127,-22.04738403950193,-13.781711253250915,2.2273719143412563,1.2663223797123497,-7.095619324969529,1.020181583142159,13.073535812808938,8.134575449637838
0.448,34.84309732360495,4.70830006499188,18.79345136991775,-12.392973972862285,-17.999008513619263,3.55887164243426,-5.371946149385761,3.5130828402765926,16.00973697037042,24.104043545145874,2.8683808869456486
0.456,26.084635459139186,3.801281196229861,16.535992370912496,-19.538960465677118,-16.36932794090662,11.80078665572603,10.188372458759238,1.3674224990098631,41.09343454951404,38.512369811975454,-8.242682539624436
0.464,19.9100526965257,-3.4860720780741543,8.953520575078475,-26.611195631752494,-13.096840308704984,7.679199471147699,6.849387289645708,-2.9305408314699206,57.717408499825154,31.705040232535108,-7.548413164704286
0.472,25.859854662195595,-24.492552788857274,4.229661733019954,-39.02224399357775,-11.596306528623186,-2.840936471759496,-10.704463184426356,-1.5309573614439038,59.493367152809085,19.050007911615843,1.7541873638225562
0.48,39.48292316185162,-56.318212536477226,4.11857607925769,-50.47281687624029,-11.53569682642021,1.316686278997722,-6.409566046371412,7.717416879576572,50.981201064819736,26.09375181975992,3.1798006859735564
0.488,44.26029945802453,-81.06960498253962,11.059024583065016,-41.169691774529,-12.944327981696915,8.440173276210897,2.8621925515519115,16.806799099213325,46.229306859208975,43.99331133843396,4.390000897966261
0.496,35.2418009798488,-87.09028022351713,16.27615754528721,-29.267081898351076,-15.072956929169296,3.6246849759070563,-4.433924134568261,15.101280517291965,56.24184160428671,54.07368340084807,12.21856286035184
