time,C3,C4,Cz,FC1,FC2,FC5,FC6,CP1,CP2,CP5,CP6
-0.2,46.103912555848936,-63.196059447609485,40.96282791696877,-54.38291660585514,-13.255690932451577,15.183954096447401,7.182218551499086,30.17943197738283,141.86873507664328,-115.65528958497944,44.26373065386569
-0.192,48.70822909796256,-95.26138710141184,30.808315784214233,-54.26523619942987,-12.494078133526996,10.062914912193365,0.8697827858651372,25.290245823793725,121.7924068905407,-61.78000715317478,35.1520231239729
-0.184,63.007438634870034,-122.01915707950936,29.803004903419488,-47.488303505324744,-15.845604566885118,5.965636204868594,-9.937116350049124,28.070627874085442,119.85530860254994,-7.008738088876135,22.68692881950296
-0.176,68.83237459745105,-160.00454382902424,32.66759750230429,-45.37713760844892,-26.763932974475146,12.14043075118428,0.10860683625887987,29.38497828759652,117.14017778580022,83.6203429712224,20.518067667594337
-0.168,46.732707264157774,-166.84941792660152,14.993423330600185,-62.54150741640117,-41.11894767605028,8.627935438895124,7.344421145651502,18.24857575687192,97.46475608388171,201.2993761643391,31.440361921586806
-0.16,44.610738431791916,-134.30410159482935,5.087667464076658,-84.77895839017697,-56.42555190182141,1.5347501397730017,-1.1518583645559946,19.375073024038333,76.2287465217759,273.8468143566713,37.732261550850446
-0.152,74.73504467709184,-113.16571341676452,20.494603856717898,-89.71475867072886,-67.80485907053416,7.483274549757172,-2.735213332938628,32.87018874432031,43.0213429216373,285.2745742919914,36.541337276132516
-0.144,66.3338234695759,-99.16775505510645,20.839245712468507,-69.99977573153706,-56.84941277089815,6.427351683605629,-2.532474102110142,19.230222274338995,-10.680684621698184,245.30494130553205,31.407908832944063
-0.136,22.813568293792052,-67.41499368579076,3.251051011473702,-45.02225882992158,-22.953773756939434,-5.837804970991494,-10.851918424201427,-13.749274622233056,-54.16800896353647,132.51264617702842,16.348236372876805
-0.128,16.368628788327605,-45.49063308038283,7.373225828907465,-39.5012574337963,4.473570368845886,-0.2992611916995558,-4.983325240812965,-21.85924480914995,-72.02489104248895,-6.041081400722628,-2.5112363750787225
-0.12,28.571675046292313,-26.586903869847834,19.119761509915996,-45.3403642025174,11.777763700885176,14.774309036283196,12.498631298440772,-12.555789355122428,-77.44103803654956,-76.42182487317326,-11.757799813329015
-0.112,12.116319248658417,32.303409289816145,6.5599724228304845,-40.73977867128846,11.37336746600743,10.86233279160834,13.168558748206944,-17.92395714465412,-77.66354401162454,-89.48423214791724,-11.242939763644507
-0.104,-3.744153086127901,100.87418549982995,-9.843619418553345,-22.36614976326424,8.88256792216543,1.7864785917459414,9.000593643800821,-30.067001135374166,-88.02141317577531,-112.38629224713705,-0.9058704005176018
-0.096,-8.953219142272301,129.41991194751736,-14.765664527661453,7.42090273436273,5.365580512426153,2.3514772319426265,17.790462139313707,-32.90868304124818,-117.5898000602639,-136.6409150534689,20.44767169142962
-0.088,-34.780134745331516,139.58227209604718,-25.312458100038246,41.112213045918416,7.794050760466638,-4.48806399100731,17.006226442583763,-33.76162274816301,-129.22381331362536,-134.12794158491258,36.0177446318156
-0.08,-53.90015483672856,155.6741721560537,-31.264826497976046,65.82621874597501,14.073784731624166,-14.874979922725796,2.4790105488815866,-32.574708544820176,-95.87353917865744,-139.14477234209738,29.070249477365657
-0.072,-32.847065215587996,162.8840488140416,-13.48359591391414,82.67442176194932,16.04921210039317,-7.365980015512811,2.030349963311158,-18.842684675901427,-51.13882148432346,-173.56783552441343,10.626992649314138
-0.064,-14.61762689010515,158.94262669237105,2.018994585772348,85.87083416018527,15.316012280377066,4.204311135753994,10.3121083412026,-2.2075150565748483,-21.844798865065297,-184.21429666825193,-2.6953063162113895
-0.056,-27.292388896940867,148.38249194753982,-5.835224399322935,66.80217104912991,16.517195390843064,-0.08737706901424999,3.554341128444199,2.436652814873674,4.789765938149225,-132.45588839429337,-17.37187344502596
-0.048,-33.57143252202887,117.04820769671153,-12.227618210901825,59.90362775959008,17.766885437269654,-6.71908421057495,-8.827240941967819,3.384093407456636,25.953983800593683,-55.875261540056016,-39.200248989206735
-0.04,-26.82604655042676,61.715354553480786,-8.723582036821004,80.556531907545,16.505163821360178,-6.959730855390797,-12.352957595607595,6.841531903377465,25.853551149065606,15.415987879772553,-50.77165957428026
-0.032,-39.63169176217276,4.781311176705762,-15.981864179301438,74.84558994520671,15.86815120075618,-9.432555440876556,-10.444872569108362,3.3910601488161896,15.028878434248805,82.41467048335409,-45.0503442089682
-0.024,-59.87255039916235,-27.017146355847593,-23.10697089652154,40.707554016216534,20.94926489579626,-8.740949159004918,-4.23654166994353,1.21062236506484,6.144849087393971,103.84086891370637,-41.654047850213345
-0.016,-62.10652696686952,-27.216360113107953,-15.455222859747627,40.04563686925492,31.644851617270707,-4.906150885890208,-2.721712869825518,9.417198813408795,-2.5175860181334047,52.65475391948483,-46.88931809084584
-0.008,-66.27095518167799,-22.822954773697102,-20.229784188373984,47.48779406662974,44.158499902230865,-13.039676630193744,-15.335528779765276,4.199361542033845,-2.613207985724768,-8.846907127987732,-49.440453982267954
0.0,-74.520513910388,-41.090864540583915,-37.749260600536445,8.264906966727144,54.995929674864215,-18.653542221176284,-17.234551332573794,-17.079383624218174,5.6586444651862315,-42.53369273164072,-52.76241585966203
0.008,-57.632504211431375,-65.79530686668971,-28.722817878164886,-23.308107443060106,60.27351881004921,-1.127407768870096,6.872179789107386,-18.43967229052219,-6.517956047174015,-87.87815446284039,-57.08972052059393
0.016,-45.45137657625345,-66.6123680107718,-13.23783872553789,-4.904552786334537,62.32163354215976,9.259454971004043,19.16425415887295,-10.135548791970617,-43.063829184907554,-139.8460225233269,-46.275277887077394
0.024,-79.42961919911077,-49.99150284556345,-35.815591483451826,5.779995098192649,69.07122080549378,-11.746171475463273,-0.11816413802748084,-29.54653150110194,-64.42736013912088,-153.74263044578913,-28.564329557731007
0.032,-102.83346973281097,-41.290686543221746,-54.95756987467139,-8.760845486422221,74.69317164193814,-26.101950806732937,-14.136078970411914,-44.909455610080535,-60.581817583087975,-152.06097947766682,-26.827302629450756
0.04,-68.37183477514823,-43.78319159206446,-26.982689822564534,-9.04161424054764,67.19839706900265,-8.941159761951408,-2.221309812981878,-21.054848665102,-61.2013246790706,-168.01826329161722,-30.206020029914395
0.048,-45.821910913670834,-43.19274979811414,-5.833426945725092,-7.701629883176167,57.328743071590075,6.705258808580745,14.214644996083573,-4.157023097669924,-64.3761920941965,-172.92807506808327,-23.229483876414847
0.056,-74.31162098404353,-34.858094305507464,-27.577448558406243,-17.45780588210331,60.624026543352095,0.18183584881860157,17.261386454609408,-22.04819393350368,-53.955431645679155,-155.51239988175368,-20.943000217605732
0.064,-85.35720231002395,-29.020003063572016,-40.11732433332787,-0.4066973664986295,66.13608988465481,-10.30101282097921,4.999007398502506,-30.702258773032604,-52.10262249848467,-147.5334778329724,-28.63768585354226
0.072,-56.52532398216341,-33.93871666696599,-20.931682024003095,34.58115757519357,60.202563282354056,-13.654624448999758,-13.02739742155584,-17.178854841715815,-61.78350765145222,-146.98104522583452,-29.46612803565007
0.08,-41.07094149922,-46.88635173502202,-9.081823928023368,37.335578021621295,52.166037105069506,-14.178238876035708,-19.837363028743873,-12.371712978547171,-44.71915421734357,-135.519258379702,-23.675877423279406
0.088,-47.28593399575174,-62.981571665189996,-13.728558994398592,23.56695062997579,53.05438285180378,-14.737748557641709,-18.246480545087977,-14.86448396295982,-8.384842554402649,-128.68577166177482,-24.36347229475788
0.096,-49.46209680266176,-80.92445879825418,-15.838951571380536,29.614174842816798,58.37878956033991,-17.950156742528392,-24.632835011735445,-10.664870254559046,8.526148840994317,-125.8597160049243,-31.849681160283836
0.104,-46.10272013714639,-102.08344392407379,-16.63258934175275,27.697288654772926,59.7843020900454,-19.637956084892284,-30.301305904814217,-5.601162521873929,19.817733430898407,-98.23753074853157,-42.60363646539111
0.112,-34.5021299007531,-130.67382498396864,-16.6107356649104,-1.9693337513365543,54.99771521454833,-11.799568664434464,-21.655914920699878,4.1767593627296415,42.60611058776608,-47.57977710420016,-54.64243414009553
0.12,-20.298229474690075,-164.4566228266778,-9.621450923206355,-21.52843541014791,47.06458515068751,-4.772411352302762,-16.734751568561293,19.7862264747134,49.686548901080066,12.49593570137113,-59.734980242891275
0.128,-26.201834701741546,-187.118948155494,-5.425977727184152,-20.871498910367233,40.92544368422768,-11.255796271363796,-28.289910966459246,21.277919215848648,37.344527048266684,72.38571386560015,-54.753702234663045
0.136,-36.575409220523156,-184.47829324360282,-8.411682916322283,-33.88838003102209,40.7422880644874,-17.243185729559872,-34.742823770507165,8.83669952029923,27.486379673960567,78.01550765614405,-50.39879327112627
0.144,-25.03084657504098,-160.78547193625778,-6.9957956521599565,-60.196945392083066,47.24552366589835,-10.397700365963047,-25.834411841689306,2.455265250354977,17.46579925506967,-1.3555326313479181,-53.20012641636627
0.152,-18.383338172918695,-131.32456986536246,-2.3725802023094626,-77.27321696220031,54.60919189523086,-4.54806137084086,-19.44987334451009,0.028214423430465867,14.433102749792582,-86.00474409004852,-55.338476585633295
0.16,-32.42139135629654,-110.01781641137173,-3.6393297732186443,-87.17948606145582,57.10288809829516,-6.271124951856036,-19.73862340043719,-6.054559772509371,32.170216868907005,-109.88033233217719,-54.03140899705708
0.168,-33.699521745030495,-105.35594385630647,-7.240754361314104,-83.78525690883727,58.46841483374389,-6.622767945263587,-18.77595553530786,-8.82440679201669,35.729771504685004,-113.10409009784519,-56.89463254127546
0.176,-25.08588424613787,-118.99206763832962,-12.313154220856028,-60.602208408881964,62.08527159909235,-10.721002795602512,-24.122364555556683,-12.630859394037833,2.7823177449102947,-117.40475965950125,-56.843813155241236
0.184,-39.32542527329995,-142.79666366224475,-24.07144930112256,-54.93976355917882,62.18037890957385,-23.266277481045393,-35.386313834721406,-26.396376547581692,-22.623098379743315,-93.93770141285152,-40.189453982923325
0.192,-53.468451953169016,-155.30012814127747,-32.60408850802078,-79.09314342447283,57.83322263776821,-28.054118140609088,-35.32090467666726,-36.39628804840762,-21.780266148889844,-71.9332554652481,-23.315232380874065
0.2,-38.6528791891979,-135.5826524708573,-24.954616494800632,-80.73016026539476,55.977792123660784,-19.025187566300644,-25.906434347364467,-29.236607919910437,-26.048198503605803,-94.89180128739787,-28.19989674988904
0.208,-25.29966478436519,-91.8604392163247,-10.591370649673896,-55.98523958374058,54.95944842730519,-9.724362068668894,-19.22610095504292,-15.863100384439653,-32.790343678519456,-127.59428674748423,-38.1299768711746
0.216,-31.48299620491562,-53.328928616621035,-7.363126071974511,-60.288365670893306,49.38647807431028,-5.674694040293761,-12.115192068681697,-12.186978950292271,-27.775618927370846,-132.97084740164877,-33.0681929810394
0.224,-33.02961221990606,-32.22446365077817,-14.813837918476393,-80.06027226653889,44.432265758226464,-6.5131528230817,-9.07044398358624,-19.2777751784474,-35.12028303939171,-132.364970881932,-25.383178922658946
0.232,-22.53257238642005,-27.60284308784327,-14.940136526309738,-68.75677458160142,41.915261415889375,-8.048904024871671,-11.943161420541628,-21.18944969764791,-54.88641544617689,-135.93971413104256,-21.8089245025922
0.24,-5.4250329701772,-40.711257500601945,1.4418301373664941,-59.052694436120376,32.832716452285304,5.467192558437886,4.108477564700833,-4.595291807029879,-55.40623095258899,-125.1314046633432,-12.83605786284113
0.248,9.306371331642808,-47.83004754721342,13.532586337867867,-79.40183969789021,21.221158888312555,24.420097963491013,30.842962566299935,9.36226978816044,-45.24971202425077,-102.78250033355715,-6.861916982088642
0.256,-4.177254047310432,-17.63613029270167,1.3994883766513744,-82.09385127947438,21.000476820008668,14.545532577911706,20.413498113991974,-5.693620154847078,-47.972300015386764,-87.39994972550957,-12.070854246112809
0.264,-25.634847182049523,22.663070199241055,-10.306822391923877,-56.594102435718696,23.356305053578126,-8.121825285336152,-10.517389021916475,-22.1778188598868,-55.53776243596602,-83.43166379805452,-12.306754475564176
0.272,-5.158896320465832,29.036632931048633,4.550077076668898,-52.48843432696595,13.788129064551859,0.3202596936963008,-4.25467226025699,-6.5484119663000975,-63.523499145746214,-82.45338321200963,-4.828435955318703
0.28,15.835165079154065,26.553202583122303,17.24624900093788,-66.76076275238879,7.801486291944903,18.92027972120579,18.609306040296968,8.532820966998178,-72.9165061778575,-76.50441743872975,-9.447894957463498
0.288,-14.316226275968878,47.45285779706574,3.83706635622829,-64.27304382369768,17.47421600664245,10.951690694291822,13.06281276367767,-6.2943668849168875,-72.0499716678593,-72.31661179635805,-22.299151445996284
0.296,-29.483975026828563,59.249609742298986,-5.363267431982306,-59.067104217913155,21.164146185334218,1.1714562471914765,2.5760493785953265,-15.494612982066698,-73.8797653853636,-78.35376162123598,-19.65072523476752
0.304,4.352469059199029,45.943057840566674,3.3134579878574852,-66.31104035741795,9.678020778833607,7.641949044080624,7.133033124996524,-2.773978878260941,-97.18678368961756,-78.06642671781815,-4.251801445735899
0.312,12.726507563205804,46.62700878640871,3.1394956079358276,-67.18990809207351,3.414928633844245,6.407299825878082,4.807358438776215,-2.354071499656445,-111.88387022463407,-58.6523491219431,1.1435769380288563
0.32,-9.349102764550905,69.59918529541196,-6.201136876829535,-58.561326478895495,6.401751908001077,-1.0146619259323038,-1.2142593310403762,-16.834675347940344,-95.01688703479472,-43.56294547004219,-8.18810795580688
0.328,-2.4791449067118343,82.87761757529672,-4.237001873030763,-47.471998650761726,5.624345818340146,3.414824055733382,4.670141306470029,-18.494484870423978,-82.76214487173682,-50.992148047707026,-16.031678132415294
0.336,12.6780942036474,76.35532540123047,4.031188436081789,-29.361434416205068,2.1357224226331852,8.528847931294264,10.019434791511737,-10.832827547996585,-98.91067499793037,-64.18462636886696,-6.83894634869451
0.344,0.9764491211978824,60.98394391101578,5.674402431163034,-17.267250602765426,1.4425771352750911,4.14469443686121,7.042447293716,-11.727774340413085,-113.96018475291767,-65.54770298428605,13.249048114996382
0.352,-14.489274013246588,50.51220335071738,0.24700833851474435,-21.479994775569075,2.865942154546766,-1.3968238867452076,3.199160630525731,-19.04361867872207,-103.83893049015761,-56.656613562863505,19.589879098224824
0.36,-17.765110676249236,51.38339443497246,-3.7842138587002805,-18.869895486087366,4.0319827258591365,-1.2477590922165804,4.368165737926587,-18.514395485457786,-82.03082673501554,-46.58696143382318,11.851574628197657
0.368,-9.53729519231863,46.033684599661534,2.902524723633245,-5.350370205320393,-0.864296471002791,4.7287821646338015,11.182017565511094,-4.033970089901012,-66.43772660669953,-39.15743798862601,16.454089055527618
0.376,3.3989506976475865,29.07928420981345,6.731473583712808,-4.615774624870279,-5.561633523136762,2.8429129793983576,4.101385565690991,6.388857804937599,-50.19892831996053,-28.120413669919976,21.174532172253922
0.384,-0.49069787471431975,24.804019556341345,-6.057043027630734,-6.591744806578183,4.216616160875142,-12.420966026136462,-22.307395114550992,0.26084297886444197,-21.447915916809194,-14.537582519238493,-5.78102421052789
0.392,-7.011613813291509,22.452155813818372,-7.946013999128691,6.811890046310382,12.482703276348886,-11.815643560992202,-23.31525297724747,2.7549204324912115,4.635272185770698,-7.652773583450499,-28.87729389052265
0.4,10.517342698410026,-8.70489551041623,12.435300778771262,12.429010201303344,-0.36425575607953814,10.878947300784843,9.83337946706704,21.220187372948562,12.03135583720272,4.619513523941968,-8.288076250389144
0.408,19.692673717680695,-40.34053722598937,16.012571005655076,1.0042296003600453,-9.75622620144118,15.621707360600164,18.65212882630081,21.16695218508733,16.208686597512717,33.07582074300902,6.805381828840347
0.416,1.3354020847030605,-39.31419560111138,-2.666839485921208,2.932619147663218,0.9202711063043248,-1.816433475079861,-4.380741429509764,2.625961584128541,25.482093608569407,50.16147324738902,-13.225383508619919
0.424,-6.431981841261075,-33.608694341411756,-10.840788516578158,19.083765679609336,5.4737987074263454,-9.641504463881471,-13.214519327736856,-3.6110992605698757,28.46093504390336,40.2272967223015,-14.180814855225698
0.432,0.4949286335932696,-42.333993276486986,-11.851643300896699,17.886208468309203,-1.7889134305857883,-8.819322367854072,-8.442530240044222,-3.6002652235197283,39.58464893656816,32.534559140360045,6.544027121082014
0.44,0.06916963025407628,-50.3470721236066,-12.161728602483993,5.117145064866354,-1.4390851667245919,-6.030326577853976,-4.45485377788051,-5.023274807185968,69.02202355016172,38.885198871014204,-0.5567610232264933
0.448,4.0770034064382905,-62.058592079768616,4.148169549963108,12.116391661666063,-0.40814896448955085,7.120538290786852,10.073712810703974,7.722306358634297,78.71817394970503,36.185758704030754,-7.873924860146007
0.456,9.68484127487109,-79.3220429577361,14.67182904005415,30.487267713054457,-5.695377425116445,12.01006051445639,18.04544428396696,17.55936557845105,57.82940092051767,22.269499673292387,17.970464485744564
0.464,1.098300719392088,-83.74823731079115,-3.5020457638520726,30.470714570307166,-3.236335675416016,-3.440861746440275,1.60365831063881,4.288561386596853,55.7066549663009,17.62563839250743,28.648026639469073
0.472,1.3315951738190168,-84.86529974419734,-9.816006021020693,21.729709978271686,0.709777451747565,-8.331665186503216,-7.566007097189444,-0.21254315478870003,83.97980402556837,26.17882978045813,11.241430879804344
0.48,15.608895309170173,-99.02500053854713,11.811622942384439,29.697433402024032,-6.796723134041882,4.2313310612924795,3.692118349987301,16.81484730867099,103.43110044361137,38.40054726196448,12.49766736473773
0.488,11.582871762028045,-107.6773439953835,12.424843599548316,40.33431081731235,-9.70627852818038,2.03185652034335,2.4783397821314552,15.3425947208849,109.02828798864876,48.956632218621415,21.641034295075155
0.496,-5.351093403669571,-104.00385503865932,-11.534757626449801,33.43150493929955,0.42954425158085746,-14.203438673377532,-15.261793751166728,-8.425385586889607,118.35437665071589,53.26161407872508,6.788580750355129
